                                                                                                                        
                                                                                                                        
                  *** CONTINUA mt_ckd_3.2                                                                               
                                                                                 Most recent significant change         
                         H2O  SELF  (T)     0 - 20000 CM-1              mt_ckd_3.2 - Cs>2000,T 1800-3500 cm-1 (Aug 2017)
                              AIR           0 - 20000 CM-1              mt_ckd_3.0 - modify 0-700 cm-1        (Nov 2016)
                         CO2  AIR           0 - 10000 CM-1              mt_ckd_2.5 - modify 2000-3000 cm-1    (Jan 2010)
                              AIR   (T)  2386 -  2434 CM-1              mt_ckd_2.5 - temperature dep. added   (Jan 2010)
                         N2   SELF  (T)     0 -   350 CM-1              ckd_2.2    - Borysow Fromhold         (Feb 1996)
                              AIR   (T)     0 -   350 CM-1              mt_ckd_2.1 - incl. O2 rel. efficiency (Sep 2004)
                              AIR   (T)  1993 -  2905 CM-1              mt_ckd_2.8 - N2-H2O Mlawer/Alvarado   (Mar 2016)
                              AIR        4340 -  4910 CM-1              mt_ckd_2.7 - Mlawer and Gombos        (May 2015)
                         O2   AIR   (T)  1340 -  1850 CM-1              ckd_2.4.1  - Thibault et al.          (Mar 1998)
                              O2/N2      7550 -  8486 CM-1              ckd_2.4.1  - Mate et al.              (Feb 2000)
                              AIR        9100 - 11000 CM-1              ckd_2.4.1  - Mlawer et al.            (Aug 1999)
                         O2   AIR     12990 - 13223 CM-1                mt_ckd_3.1  - Mlawer and Gombos       (Jul 2017)
                              O2        15000 - 29870 CM-1              ckd_2.4.2  - Greenblatt et al.        (May 2000)
                              O2/N2     36000 -  >>>> CM-1 HERZBERG     ckd_0                                           
                         O3   AIR   (T)  9170 - 24565 CM-1 CHAPP/WULF   ckd_2.2                               (Feb 1996)
                                    (T) 27370 - 40800 CM-1 HARTL/HUGG   ckd_0                                           
                                        40800 - 54000 CM-1 HARTL/HUGG   ckd_0                                           
                                                                                                                        
                                                                                                                        
                                                                                                                        
                                                                                                                        
Continuum    LBL_n                      Description of Modification                                            Date     
---------    -----                    -------------------------------                                          ----     
                    H2O SELF HAS BEEN REDUCED IN THE 800-1200 CM-1 REGION                                  (01 SEP 1985)
                    03       TEMPERATURE DEPENDENCE HAS BEEN CORRECTED                                     (01 MAY 1987)
                    02       (1390-1760) HAS BEEN REDUCED (FACTOR = 0.78)                                  (07 MAR 1990)
 ckd_1.0      2.2   H2O SELF HAS BEEN REDUCED IN THE 1100-1500 CM-1 REGION                                 (01 APR 1993)
     "              H2O FOREIGN HAS BEEN REDUCED AT ~1300 CM-1 AND IN ALL THE WINDOW REGIONS               (01 APR 1993)
 ckd_2.1      3.3   H2O SELF HAS BEEN MODIFIED IN THE 700-1500 CM-1 REGION                                 (01 MAY 1994)
     "              H2O FOREIGN HAS BEEN MODIFIED IN THE ENTIRE 1200-2200 CM-1 SPECTRAL RANGE              (01 MAY 1994)
 ckd_2.2      3.7   H2O SELF HAS BEEN INCREASED 30% IN THE MICROWAVE REGION                                (09 FEB 1996)
     "              N2 COLLISION INDUCED PURE ROTATION BAND ADDED                                          (09 FEB 1996)
     "              O3 CHAPPUIS CHANGED TO VALUES FROM MODTRAN3                                            (09 FEB 1996)
 ckd_2.2.2    3.12  INTERPOLATION EFFECTS BETWEEN HARTLEY HUGGINS DATA AROUND 40800 CM-1                   (18 SEP 1996)
 ckd_2.4.1    5.12  O2 COLLISION INDUCED FUNDAMENTAL BAND (1340-1850 CM-1) CHANGED TO THIBAULT ET AL., 1996   (MAR 1998)
     "              N2 COLLISION INDUCED FUNDAMENTAL BAND (2085-2670 CM-1) CHANGED TO LAFFERTY ET AL., 1996   (MAR 1998)
     "              H2O FOREIGN HAS BEEN MODIFIED IN THE 0-800 CM-1 AND 1200-2200 CM-1 RANGE BASED ON      (04 JUN 1999)
     "                       AERI-ER FROM SHEBA, TOBIN ET AL., 1998                                                     
     "              H2O SELF HAS BEEN INCREASED IN THE 0-200 CM-1 REGION                                   (04 JUN 1999)
     "              O2 COLLISION INDUCED BAND HAS BEEN ADDED  (9100 - 11000 CM-1); MLAWER ET AL. 1998      (16 AUG 1999)
     "              O2 COLLISION INDUCED BAND HAS BEEN CHANGED (7555 - 8486 CM-1); MATE ET AL. 1999        (10 FEB 2000)
 ckd_2.4.2    5.17  O2 COLLISION INDUCED BANDS HAVE BEEN ADDED (15000 - 29870 CM-1); GREENBLATT ET AL. 1990 (8 MAY 2000)
     "              The nu2 CO2 increased by a factor of 7: based on U  Wisc. AFWEX and AERI_xr at ARM NSA    (Jul 2002)
 mt_ckd_1.00  7.01  *********   The entire water vapor continuum has been revised   *********                 (Dec 2002)
     "              *********   This continuum is based on a new line shape/collision induced formulation, mt_ckd ******
 mt_ckd_1.1   9.1   H2O foreign modified in the 250-550 cm-1 region; results now consistent with ckd_2.4.1    (Aug 2004)
 mt_ckd_1.2   9.2   Collision induced nitrogen 0-350 cm-1 increased (~1.35):  Boissoles at al., 2003          (Sep 2004)
 mt_ckd_1.3  10.0   Nu2 CO2: with P-R line mixing included; factor of 7 increase has been reduceed to 4.5     (May 2006)
 mt_ckd_2.0  11.1   CO2: Based on Hartmann P-Q-R line mixing.  Modification to v3 band based on AIRS data.    (Jul 2007)
 mt_ckd_2.01 11.2   H2O foreign modified in 250-550 cm-1 region based on analyses of nsa aeri_er data.        (Sep 2007)
 mt_ckd_2.1  11.3   CO2: Fundamental change in the lblrtm fourth function with consequent changes in continuum(Nov 2007)
     "              Bug fix impacting the nitrogen continuum in the 0-350 cm-1 region.                        (Nov 2007)
 mt_ckd_2.2  11.4   Analytic Derivative (species retrievals): n2 continuum removed from Jacobian calculation  (Mar 2008)
 mt_ckd_2.3  11.5   Bug fix: corrects error in which Analytic Derivative result depends on starting wavenumber(Aug 2008)
 mt_ckd_2.4  11.6   H2O: modification to self and foreign continuum (microwave and IR ARM data 0-600 cm-1)    (Nov 2008)
 mt_ckd_2.5  11.7   CO2: modification from 2000-3200 cm-1 (AERI(ARM),IASI AIRS measurements); Temp. dep. added(Jan 2010)
     "              H2O: modification to self cont. 2000-3000 cm-1   (IASI data, fit to near-IR results of              
     "              Bicknell et al., 2006 and Fulghum and Tilleman,  1991                                               
 mt_ckd_2.5.1 11.8  Updated common block for constants                                                        (May 2010)
 mt_ckd_2.5.2 12.0  Minor bug fixes, updated continuum summary info,  made consistent with monortm contnm.f   (Jan 2011)
 mt_ckd_2.5.3  -    Cosmetic changes                                                                          (Mar 2015)
 mt_ckd_2.7   12.4  N2 1st overtone - Shapiro & Gush (1966) modified by Mlawer and Gombos based on solar FTS  (Apr 2015)
                    Bug fix for analytic jacobians                                                            (Feb 2016)
 mt_ckd_2.8   12.5  N2-H2O from 2000-3000 cm-1,H2O self for 2000-3190 cm-1,H2O foreign in windows >1880 cm-1  (Jul 2016)
 mt_ckd_3.0   12.6  H2O: foreign/self 0-700/0-100 cm-1; RHUBC-II/-I; REFIR,AERI,SAO-FTS; Mlawer,Turner,Paine  (Nov 2016)
 mt_ckd_3.1   12.7  O2 A-band: Mlawer and Gombos based on analysis ofTCCON FTS measurements for OCO-2         (Jul 2017)
 mt_ckd_3.2   12.8  H2O self > 2000 cm-1 and tdep 1800-3500 cm-1: Campargue group and IASI obs; Mlawer et al. (Aug 2017)
                    ----------------------------------------------------------------------------------------------------
                    ----------------------------------------------------------------------------------------------------

                             P(MB)       T(K)

                           1013.000   300.00

         MOLECULAR AMOUNTS (MOL/CM**2) BY LAYER 

   H2O       CO2        O3       N2O        CO       CH4        O2      OTHER

 2.421E+17 8.351E+15 0.000E+00 0.000E+00 0.000E+00 0.000E+00 5.083E+18 1.910E+19


     0.000   0.000E+00
     2.000   2.634E-07
     4.000   1.055E-06
     6.000   2.376E-06
     8.000   4.231E-06
    10.000   6.619E-06
    12.000   9.504E-06
    14.000   1.288E-05
    16.000   1.681E-05
    18.000   2.134E-05
    20.000   2.654E-05
    22.000   3.220E-05
    24.000   3.830E-05
    26.000   4.511E-05
    28.000   5.294E-05
    30.000   6.207E-05
    32.000   7.241E-05
    34.000   8.375E-05
    36.000   9.626E-05
    38.000   1.101E-04
    40.000   1.254E-04
    42.000   1.422E-04
    44.000   1.604E-04
    46.000   1.799E-04
    48.000   2.008E-04
    50.000   2.230E-04
    52.000   2.474E-04
    54.000   2.738E-04
    56.000   3.012E-04
    58.000   3.283E-04
    60.000   3.538E-04
    62.000   3.778E-04
    64.000   4.011E-04
    66.000   4.237E-04
    68.000   4.456E-04
    70.000   4.667E-04
    72.000   4.873E-04
    74.000   5.074E-04
    76.000   5.267E-04
    78.000   5.448E-04
    80.000   5.615E-04
    82.000   5.764E-04
    84.000   5.898E-04
    86.000   6.021E-04
    88.000   6.137E-04
    90.000   6.250E-04
    92.000   6.362E-04
    94.000   6.468E-04
    96.000   6.569E-04
    98.000   6.663E-04
   100.000   6.750E-04
   102.000   6.827E-04
   104.000   6.896E-04
   106.000   6.958E-04
   108.000   7.017E-04
   110.000   7.077E-04
   112.000   7.137E-04
   114.000   7.196E-04
   116.000   7.253E-04
   118.000   7.306E-04
   120.000   7.354E-04
   122.000   7.397E-04
   124.000   7.435E-04
   126.000   7.470E-04
   128.000   7.499E-04
   130.000   7.524E-04
   132.000   7.546E-04
   134.000   7.563E-04
   136.000   7.575E-04
   138.000   7.580E-04
   140.000   7.578E-04
   142.000   7.565E-04
   144.000   7.541E-04
   146.000   7.512E-04
   148.000   7.484E-04
   150.000   7.463E-04
   152.000   7.456E-04
   154.000   7.460E-04
   156.000   7.463E-04
   158.000   7.451E-04
   160.000   7.412E-04
   162.000   7.336E-04
   164.000   7.234E-04
   166.000   7.116E-04
   168.000   6.994E-04
   170.000   6.880E-04
   172.000   6.772E-04
   174.000   6.663E-04
   176.000   6.554E-04
   178.000   6.449E-04
   180.000   6.350E-04
   182.000   6.258E-04
   184.000   6.172E-04
   186.000   6.090E-04
   188.000   6.011E-04
   190.000   5.935E-04
   192.000   5.864E-04
   194.000   5.799E-04
   196.000   5.735E-04
   198.000   5.669E-04
   200.000   5.595E-04
   202.000   5.513E-04
   204.000   5.426E-04
   206.000   5.334E-04
   208.000   5.240E-04
   210.000   5.145E-04
   212.000   5.047E-04
   214.000   4.948E-04
   216.000   4.846E-04
   218.000   4.741E-04
   220.000   4.634E-04
   222.000   4.525E-04
   224.000   4.414E-04
   226.000   4.300E-04
   228.000   4.183E-04
   230.000   4.062E-04
   232.000   3.930E-04
   234.000   3.789E-04
   236.000   3.648E-04
   238.000   3.515E-04
   240.000   3.399E-04
   242.000   3.305E-04
   244.000   3.226E-04
   246.000   3.156E-04
   248.000   3.091E-04
   250.000   3.027E-04
   252.000   2.962E-04
   254.000   2.899E-04
   256.000   2.841E-04
   258.000   2.786E-04
   260.000   2.737E-04
   262.000   2.696E-04
   264.000   2.664E-04
   266.000   2.634E-04
   268.000   2.601E-04
   270.000   2.560E-04
   272.000   2.507E-04
   274.000   2.447E-04
   276.000   2.384E-04
   278.000   2.320E-04
   280.000   2.261E-04
   282.000   2.207E-04
   284.000   2.156E-04
   286.000   2.105E-04
   288.000   2.054E-04
   290.000   2.001E-04
   292.000   1.944E-04
   294.000   1.885E-04
   296.000   1.826E-04
   298.000   1.768E-04
   300.000   1.712E-04
   302.000   1.658E-04
   304.000   1.603E-04
   306.000   1.550E-04
   308.000   1.503E-04
   310.000   1.463E-04
   312.000   1.435E-04
   314.000   1.417E-04
   316.000   1.402E-04
   318.000   1.386E-04
   320.000   1.364E-04
   322.000   1.333E-04
   324.000   1.299E-04
   326.000   1.262E-04
   328.000   1.223E-04
   330.000   1.184E-04
   332.000   1.144E-04
   334.000   1.101E-04
   336.000   1.058E-04
   338.000   1.017E-04
   340.000   9.803E-05
   342.000   9.491E-05
   344.000   9.218E-05
   346.000   8.967E-05
   348.000   8.722E-05
   350.000   8.464E-05
   352.000   8.188E-05
   354.000   7.908E-05
   356.000   7.631E-05
   358.000   7.361E-05
   360.000   7.105E-05
   362.000   6.859E-05
   364.000   6.620E-05
   366.000   6.391E-05
   368.000   6.175E-05
   370.000   5.975E-05
   372.000   5.796E-05
   374.000   5.637E-05
   376.000   5.489E-05
   378.000   5.345E-05
   380.000   5.199E-05
   382.000   5.048E-05
   384.000   4.899E-05
   386.000   4.752E-05
   388.000   4.609E-05
   390.000   4.470E-05
   392.000   4.332E-05
   394.000   4.194E-05
   396.000   4.062E-05
   398.000   3.940E-05
   400.000   3.834E-05
   402.000   3.748E-05
   404.000   3.680E-05
   406.000   3.621E-05
   408.000   3.564E-05
   410.000   3.502E-05
   412.000   3.434E-05
   414.000   3.365E-05
   416.000   3.296E-05
   418.000   3.229E-05
   420.000   3.165E-05
   422.000   3.106E-05
   424.000   3.049E-05
   426.000   2.995E-05
   428.000   2.942E-05
   430.000   2.890E-05
   432.000   2.840E-05
   434.000   2.792E-05
   436.000   2.745E-05
   438.000   2.696E-05
   440.000   2.645E-05
   442.000   2.588E-05
   444.000   2.527E-05
   446.000   2.465E-05
   448.000   2.405E-05
   450.000   2.349E-05
   452.000   2.299E-05
   454.000   2.253E-05
   456.000   2.209E-05
   458.000   2.167E-05
   460.000   2.126E-05
   462.000   2.088E-05
   464.000   2.053E-05
   466.000   2.019E-05
   468.000   1.985E-05
   470.000   1.949E-05
   472.000   1.911E-05
   474.000   1.872E-05
   476.000   1.832E-05
   478.000   1.792E-05
   480.000   1.753E-05
   482.000   1.715E-05
   484.000   1.677E-05
   486.000   1.639E-05
   488.000   1.601E-05
   490.000   1.565E-05
   492.000   1.529E-05
   494.000   1.494E-05
   496.000   1.459E-05
   498.000   1.426E-05
   500.000   1.397E-05
   502.000   1.371E-05
   504.000   1.348E-05
   506.000   1.327E-05
   508.000   1.306E-05
   510.000   1.284E-05
   512.000   1.260E-05
   514.000   1.236E-05
   516.000   1.211E-05
   518.000   1.187E-05
   520.000   1.163E-05
   522.000   1.139E-05
   524.000   1.115E-05
   526.000   1.091E-05
   528.000   1.067E-05
   530.000   1.044E-05
   532.000   1.021E-05
   534.000   9.983E-06
   536.000   9.761E-06
   538.000   9.546E-06
   540.000   9.342E-06
   542.000   9.150E-06
   544.000   8.968E-06
   546.000   8.794E-06
   548.000   8.623E-06
   550.000   8.452E-06
   552.000   8.281E-06
   554.000   8.112E-06
   556.000   7.945E-06
   558.000   7.781E-06
   560.000   7.621E-06
   562.000   7.464E-06
   564.000   7.312E-06
   566.000   7.162E-06
   568.000   7.013E-06
   570.000   6.864E-06
   572.000   6.711E-06
   574.000   6.558E-06
   576.000   6.406E-06
   578.000   6.258E-06
   580.000   6.117E-06
   582.000   5.984E-06
   584.000   5.856E-06
   586.000   5.733E-06
   588.000   5.615E-06
   590.000   5.502E-06
   592.000   5.396E-06
   594.000   5.299E-06
   596.000   5.209E-06
   598.000   5.121E-06
   600.000   5.035E-06
   602.000   4.950E-06
   604.000   4.867E-06
   606.000   4.786E-06
   608.000   4.707E-06
   610.000   4.630E-06
   612.000   4.556E-06
   614.000   4.486E-06
   616.000   4.420E-06
   618.000   4.360E-06
   620.000   4.307E-06
   622.000   4.263E-06
   624.000   4.232E-06
   626.000   4.221E-06
   628.000   4.229E-06
   630.000   4.257E-06
   632.000   4.309E-06
   634.000   4.386E-06
   636.000   4.488E-06
   638.000   4.615E-06
   640.000   4.767E-06
   642.000   4.925E-06
   644.000   5.433E-06
   646.000   6.137E-06
   648.000   6.833E-06
   650.000   7.506E-06
   652.000   8.148E-06
   654.000   8.746E-06
   656.000   9.302E-06
   658.000   9.793E-06
   660.000   1.022E-05
   662.000   1.056E-05
   664.000   1.082E-05
   666.000   1.099E-05
   668.000   1.107E-05
   670.000   1.103E-05
   672.000   1.090E-05
   674.000   1.067E-05
   676.000   1.034E-05
   678.000   9.927E-06
   680.000   9.422E-06
   682.000   8.842E-06
   684.000   8.179E-06
   686.000   7.455E-06
   688.000   6.664E-06
   690.000   5.813E-06
   692.000   4.908E-06
   694.000   4.319E-06
   696.000   3.907E-06
   698.000   3.590E-06
   700.000   3.308E-06
   702.000   3.058E-06
   704.000   2.841E-06
   706.000   2.653E-06
   708.000   2.495E-06
   710.000   2.362E-06
   712.000   2.251E-06
   714.000   2.159E-06
   716.000   2.084E-06
   718.000   2.021E-06
   720.000   1.966E-06
   722.000   1.918E-06
   724.000   1.874E-06
   726.000   1.833E-06
   728.000   1.794E-06
   730.000   1.756E-06
   732.000   1.718E-06
   734.000   1.680E-06
   736.000   1.642E-06
   738.000   1.605E-06
   740.000   1.567E-06
   742.000   1.529E-06
   744.000   1.492E-06
   746.000   1.458E-06
   748.000   1.433E-06
   750.000   1.408E-06
   752.000   1.384E-06
   754.000   1.361E-06
   756.000   1.339E-06
   758.000   1.318E-06
   760.000   1.297E-06
   762.000   1.278E-06
   764.000   1.259E-06
   766.000   1.241E-06
   768.000   1.224E-06
   770.000   1.207E-06
   772.000   1.191E-06
   774.000   1.176E-06
   776.000   1.161E-06
   778.000   1.146E-06
   780.000   1.131E-06
   782.000   1.117E-06
   784.000   1.104E-06
   786.000   1.090E-06
   788.000   1.077E-06
   790.000   1.064E-06
   792.000   1.051E-06
   794.000   1.039E-06
   796.000   1.027E-06
   798.000   1.015E-06
   800.000   1.004E-06
   802.000   9.922E-07
   804.000   9.808E-07
   806.000   9.697E-07
   808.000   9.587E-07
   810.000   9.481E-07
   812.000   9.378E-07
   814.000   9.278E-07
   816.000   9.181E-07
   818.000   9.086E-07
   820.000   8.993E-07
   822.000   8.902E-07
   824.000   8.814E-07
   826.000   8.727E-07
   828.000   8.643E-07
   830.000   8.559E-07
   832.000   8.476E-07
   834.000   8.394E-07
   836.000   8.314E-07
   838.000   8.236E-07
   840.000   8.160E-07
   842.000   8.087E-07
   844.000   8.016E-07
   846.000   7.947E-07
   848.000   7.879E-07
   850.000   7.811E-07
   852.000   7.743E-07
   854.000   7.675E-07
   856.000   7.608E-07
   858.000   7.542E-07
   860.000   7.475E-07
   862.000   7.409E-07
   864.000   7.343E-07
   866.000   7.278E-07
   868.000   7.213E-07
   870.000   7.150E-07
   872.000   7.088E-07
   874.000   7.027E-07
   876.000   6.967E-07
   878.000   6.907E-07
   880.000   6.847E-07
   882.000   6.787E-07
   884.000   6.727E-07
   886.000   6.667E-07
   888.000   6.608E-07
   890.000   6.549E-07
   892.000   6.490E-07
   894.000   6.432E-07
   896.000   6.374E-07
   898.000   6.317E-07
   900.000   6.263E-07
   902.000   6.213E-07
   904.000   6.167E-07
   906.000   6.122E-07
   908.000   6.075E-07
   910.000   6.023E-07
   912.000   5.965E-07
   914.000   5.902E-07
   916.000   5.838E-07
   918.000   5.774E-07
   920.000   5.712E-07
   922.000   5.653E-07
   924.000   5.597E-07
   926.000   5.541E-07
   928.000   5.485E-07
   930.000   5.427E-07
   932.000   5.366E-07
   934.000   5.303E-07
   936.000   5.239E-07
   938.000   5.178E-07
   940.000   5.120E-07
   942.000   5.066E-07
   944.000   5.014E-07
   946.000   4.965E-07
   948.000   4.918E-07
   950.000   4.872E-07
   952.000   4.828E-07
   954.000   4.785E-07
   956.000   4.744E-07
   958.000   4.704E-07
   960.000   4.665E-07
   962.000   4.626E-07
   964.000   4.588E-07
   966.000   4.550E-07
   968.000   4.513E-07
   970.000   4.476E-07
   972.000   4.440E-07
   974.000   4.404E-07
   976.000   4.368E-07
   978.000   4.333E-07
   980.000   4.298E-07
   982.000   4.264E-07
   984.000   4.229E-07
   986.000   4.195E-07
   988.000   4.162E-07
   990.000   4.129E-07
   992.000   4.096E-07
   994.000   4.064E-07
   996.000   4.032E-07
   998.000   4.000E-07
  1000.000   3.969E-07
  1002.000   3.938E-07
  1004.000   3.907E-07
  1006.000   3.877E-07
  1008.000   3.847E-07
  1010.000   3.818E-07
  1012.000   3.789E-07
  1014.000   3.761E-07
  1016.000   3.734E-07
  1018.000   3.706E-07
  1020.000   3.679E-07
  1022.000   3.652E-07
  1024.000   3.626E-07
  1026.000   3.599E-07
  1028.000   3.573E-07
  1030.000   3.548E-07
  1032.000   3.523E-07
  1034.000   3.499E-07
  1036.000   3.475E-07
  1038.000   3.451E-07
  1040.000   3.427E-07
  1042.000   3.404E-07
  1044.000   3.381E-07
  1046.000   3.359E-07
  1048.000   3.336E-07
  1050.000   3.315E-07
  1052.000   3.293E-07
  1054.000   3.272E-07
  1056.000   3.252E-07
  1058.000   3.231E-07
  1060.000   3.211E-07
  1062.000   3.192E-07
  1064.000   3.172E-07
  1066.000   3.153E-07
  1068.000   3.134E-07
  1070.000   3.116E-07
  1072.000   3.098E-07
  1074.000   3.081E-07
  1076.000   3.065E-07
  1078.000   3.049E-07
  1080.000   3.033E-07
  1082.000   3.018E-07
  1084.000   3.002E-07
  1086.000   2.987E-07
  1088.000   2.972E-07
  1090.000   2.958E-07
  1092.000   2.944E-07
  1094.000   2.931E-07
  1096.000   2.917E-07
  1098.000   2.905E-07
  1100.000   2.893E-07
  1102.000   2.883E-07
  1104.000   2.873E-07
  1106.000   2.864E-07
  1108.000   2.855E-07
  1110.000   2.847E-07
  1112.000   2.838E-07
  1114.000   2.830E-07
  1116.000   2.821E-07
  1118.000   2.814E-07
  1120.000   2.808E-07
  1122.000   2.802E-07
  1124.000   2.798E-07
  1126.000   2.794E-07
  1128.000   2.791E-07
  1130.000   2.788E-07
  1132.000   2.787E-07
  1134.000   2.785E-07
  1136.000   2.785E-07
  1138.000   2.786E-07
  1140.000   2.788E-07
  1142.000   2.791E-07
  1144.000   2.796E-07
  1146.000   2.801E-07
  1148.000   2.808E-07
  1150.000   2.814E-07
  1152.000   2.821E-07
  1154.000   2.828E-07
  1156.000   2.836E-07
  1158.000   2.845E-07
  1160.000   2.854E-07
  1162.000   2.864E-07
  1164.000   2.874E-07
  1166.000   2.885E-07
  1168.000   2.898E-07
  1170.000   2.912E-07
  1172.000   2.927E-07
  1174.000   2.944E-07
  1176.000   2.962E-07
  1178.000   2.981E-07
  1180.000   3.004E-07
  1182.000   3.029E-07
  1184.000   3.056E-07
  1186.000   3.085E-07
  1188.000   3.116E-07
  1190.000   3.147E-07
  1192.000   3.180E-07
  1194.000   3.214E-07
  1196.000   3.250E-07
  1198.000   3.286E-07
  1200.000   3.323E-07
  1202.000   3.359E-07
  1204.000   3.395E-07
  1206.000   3.433E-07
  1208.000   3.473E-07
  1210.000   3.519E-07
  1212.000   3.569E-07
  1214.000   3.624E-07
  1216.000   3.682E-07
  1218.000   3.745E-07
  1220.000   3.811E-07
  1222.000   3.880E-07
  1224.000   3.952E-07
  1226.000   4.029E-07
  1228.000   4.111E-07
  1230.000   4.200E-07
  1232.000   4.298E-07
  1234.000   4.403E-07
  1236.000   4.514E-07
  1238.000   4.629E-07
  1240.000   4.745E-07
  1242.000   4.862E-07
  1244.000   4.983E-07
  1246.000   5.107E-07
  1248.000   5.232E-07
  1250.000   5.358E-07
  1252.000   5.481E-07
  1254.000   5.602E-07
  1256.000   5.726E-07
  1258.000   5.859E-07
  1260.000   6.008E-07
  1262.000   6.171E-07
  1264.000   6.346E-07
  1266.000   6.532E-07
  1268.000   6.730E-07
  1270.000   6.939E-07
  1272.000   7.154E-07
  1274.000   7.376E-07
  1276.000   7.612E-07
  1278.000   7.869E-07
  1280.000   8.155E-07
  1282.000   8.476E-07
  1284.000   8.826E-07
  1286.000   9.198E-07
  1288.000   9.581E-07
  1290.000   9.968E-07
  1292.000   1.035E-06
  1294.000   1.073E-06
  1296.000   1.112E-06
  1298.000   1.154E-06
  1300.000   1.202E-06
  1302.000   1.253E-06
  1304.000   1.307E-06
  1306.000   1.365E-06
  1308.000   1.428E-06
  1310.000   1.496E-06
  1312.000   1.569E-06
  1314.000   1.647E-06
  1316.000   1.730E-06
  1318.000   1.818E-06
  1320.000   1.911E-06
  1322.000   2.006E-06
  1324.000   2.103E-06
  1326.000   2.206E-06
  1328.000   2.319E-06
  1330.000   2.447E-06
  1332.000   2.588E-06
  1334.000   2.741E-06
  1336.000   2.906E-06
  1338.000   3.080E-06
  1340.000   3.265E-06
  1342.000   3.458E-06
  1344.000   3.661E-06
  1346.000   3.874E-06
  1348.000   4.099E-06
  1350.000   4.339E-06
  1352.000   4.587E-06
  1354.000   4.842E-06
  1356.000   5.113E-06
  1358.000   5.407E-06
  1360.000   5.731E-06
  1362.000   6.090E-06
  1364.000   6.477E-06
  1366.000   6.888E-06
  1368.000   7.317E-06
  1370.000   7.757E-06
  1372.000   8.206E-06
  1374.000   8.665E-06
  1376.000   9.142E-06
  1378.000   9.646E-06
  1380.000   1.018E-05
  1382.000   1.075E-05
  1384.000   1.134E-05
  1386.000   1.196E-05
  1388.000   1.262E-05
  1390.000   1.333E-05
  1392.000   1.408E-05
  1394.000   1.488E-05
  1396.000   1.572E-05
  1398.000   1.659E-05
  1400.000   1.749E-05
  1402.000   1.840E-05
  1404.000   1.933E-05
  1406.000   2.030E-05
  1408.000   2.131E-05
  1410.000   2.238E-05
  1412.000   2.352E-05
  1414.000   2.473E-05
  1416.000   2.597E-05
  1418.000   2.727E-05
  1420.000   2.859E-05
  1422.000   2.994E-05
  1424.000   3.133E-05
  1426.000   3.276E-05
  1428.000   3.424E-05
  1430.000   3.578E-05
  1432.000   3.739E-05
  1434.000   3.907E-05
  1436.000   4.080E-05
  1438.000   4.255E-05
  1440.000   4.431E-05
  1442.000   4.607E-05
  1444.000   4.785E-05
  1446.000   4.965E-05
  1448.000   5.149E-05
  1450.000   5.337E-05
  1452.000   5.529E-05
  1454.000   5.724E-05
  1456.000   5.924E-05
  1458.000   6.128E-05
  1460.000   6.337E-05
  1462.000   6.549E-05
  1464.000   6.763E-05
  1466.000   6.983E-05
  1468.000   7.214E-05
  1470.000   7.457E-05
  1472.000   7.720E-05
  1474.000   7.999E-05
  1476.000   8.286E-05
  1478.000   8.572E-05
  1480.000   8.850E-05
  1482.000   9.114E-05
  1484.000   9.373E-05
  1486.000   9.629E-05
  1488.000   9.888E-05
  1490.000   1.015E-04
  1492.000   1.043E-04
  1494.000   1.071E-04
  1496.000   1.100E-04
  1498.000   1.128E-04
  1500.000   1.157E-04
  1502.000   1.185E-04
  1504.000   1.214E-04
  1506.000   1.243E-04
  1508.000   1.271E-04
  1510.000   1.300E-04
  1512.000   1.328E-04
  1514.000   1.356E-04
  1516.000   1.384E-04
  1518.000   1.411E-04
  1520.000   1.437E-04
  1522.000   1.462E-04
  1524.000   1.486E-04
  1526.000   1.510E-04
  1528.000   1.531E-04
  1530.000   1.549E-04
  1532.000   1.564E-04
  1534.000   1.577E-04
  1536.000   1.587E-04
  1538.000   1.595E-04
  1540.000   1.601E-04
  1542.000   1.605E-04
  1544.000   1.607E-04
  1546.000   1.607E-04
  1548.000   1.605E-04
  1550.000   1.600E-04
  1552.000   1.593E-04
  1554.000   1.583E-04
  1556.000   1.572E-04
  1558.000   1.558E-04
  1560.000   1.542E-04
  1562.000   1.525E-04
  1564.000   1.504E-04
  1566.000   1.482E-04
  1568.000   1.460E-04
  1570.000   1.437E-04
  1572.000   1.415E-04
  1574.000   1.391E-04
  1576.000   1.368E-04
  1578.000   1.344E-04
  1580.000   1.321E-04
  1582.000   1.298E-04
  1584.000   1.275E-04
  1586.000   1.252E-04
  1588.000   1.232E-04
  1590.000   1.213E-04
  1592.000   1.198E-04
  1594.000   1.184E-04
  1596.000   1.173E-04
  1598.000   1.163E-04
  1600.000   1.156E-04
  1602.000   1.151E-04
  1604.000   1.149E-04
  1606.000   1.149E-04
  1608.000   1.151E-04
  1610.000   1.156E-04
  1612.000   1.164E-04
  1614.000   1.175E-04
  1616.000   1.189E-04
  1618.000   1.204E-04
  1620.000   1.221E-04
  1622.000   1.240E-04
  1624.000   1.261E-04
  1626.000   1.284E-04
  1628.000   1.306E-04
  1630.000   1.327E-04
  1632.000   1.347E-04
  1634.000   1.366E-04
  1636.000   1.385E-04
  1638.000   1.403E-04
  1640.000   1.419E-04
  1642.000   1.435E-04
  1644.000   1.449E-04
  1646.000   1.462E-04
  1648.000   1.475E-04
  1650.000   1.487E-04
  1652.000   1.499E-04
  1654.000   1.510E-04
  1656.000   1.521E-04
  1658.000   1.530E-04
  1660.000   1.537E-04
  1662.000   1.541E-04
  1664.000   1.543E-04
  1666.000   1.543E-04
  1668.000   1.541E-04
  1670.000   1.537E-04
  1672.000   1.531E-04
  1674.000   1.523E-04
  1676.000   1.513E-04
  1678.000   1.500E-04
  1680.000   1.487E-04
  1682.000   1.470E-04
  1684.000   1.451E-04
  1686.000   1.431E-04
  1688.000   1.410E-04
  1690.000   1.389E-04
  1692.000   1.368E-04
  1694.000   1.347E-04
  1696.000   1.325E-04
  1698.000   1.302E-04
  1700.000   1.280E-04
  1702.000   1.257E-04
  1704.000   1.234E-04
  1706.000   1.211E-04
  1708.000   1.186E-04
  1710.000   1.161E-04
  1712.000   1.134E-04
  1714.000   1.107E-04
  1716.000   1.078E-04
  1718.000   1.049E-04
  1720.000   1.019E-04
  1722.000   9.892E-05
  1724.000   9.578E-05
  1726.000   9.264E-05
  1728.000   8.957E-05
  1730.000   8.669E-05
  1732.000   8.400E-05
  1734.000   8.145E-05
  1736.000   7.901E-05
  1738.000   7.664E-05
  1740.000   7.431E-05
  1742.000   7.201E-05
  1744.000   6.977E-05
  1746.000   6.759E-05
  1748.000   6.550E-05
  1750.000   6.353E-05
  1752.000   6.169E-05
  1754.000   5.999E-05
  1756.000   5.836E-05
  1758.000   5.677E-05
  1760.000   5.518E-05
  1762.000   5.356E-05
  1764.000   5.195E-05
  1766.000   5.038E-05
  1768.000   4.884E-05
  1770.000   4.736E-05
  1772.000   4.595E-05
  1774.000   4.459E-05
  1776.000   4.328E-05
  1778.000   4.200E-05
  1780.000   4.074E-05
  1782.000   3.950E-05
  1784.000   3.828E-05
  1786.000   3.710E-05
  1788.000   3.595E-05
  1790.000   3.483E-05
  1792.000   3.377E-05
  1794.000   3.275E-05
  1796.000   3.175E-05
  1798.000   3.077E-05
  1800.000   2.978E-05
  1802.000   2.876E-05
  1804.000   2.773E-05
  1806.000   2.671E-05
  1808.000   2.573E-05
  1810.000   2.482E-05
  1812.000   2.399E-05
  1814.000   2.324E-05
  1816.000   2.252E-05
  1818.000   2.182E-05
  1820.000   2.110E-05
  1822.000   2.035E-05
  1824.000   1.960E-05
  1826.000   1.886E-05
  1828.000   1.815E-05
  1830.000   1.749E-05
  1832.000   1.690E-05
  1834.000   1.635E-05
  1836.000   1.583E-05
  1838.000   1.535E-05
  1840.000   1.488E-05
  1842.000   1.446E-05
  1844.000   1.407E-05
  1846.000   1.370E-05
  1848.000   1.333E-05
  1850.000   1.294E-05
  1852.000   1.251E-05
  1854.000   1.206E-05
  1856.000   1.161E-05
  1858.000   1.117E-05
  1860.000   1.077E-05
  1862.000   1.040E-05
  1864.000   1.007E-05
  1866.000   9.747E-06
  1868.000   9.422E-06
  1870.000   9.074E-06
  1872.000   8.688E-06
  1874.000   8.274E-06
  1876.000   7.858E-06
  1878.000   7.467E-06
  1880.000   7.127E-06
  1882.000   6.852E-06
  1884.000   6.624E-06
  1886.000   6.423E-06
  1888.000   6.226E-06
  1890.000   6.014E-06
  1892.000   5.780E-06
  1894.000   5.537E-06
  1896.000   5.296E-06
  1898.000   5.065E-06
  1900.000   4.852E-06
  1902.000   4.659E-06
  1904.000   4.480E-06
  1906.000   4.313E-06
  1908.000   4.156E-06
  1910.000   4.007E-06
  1912.000   3.869E-06
  1914.000   3.744E-06
  1916.000   3.626E-06
  1918.000   3.513E-06
  1920.000   3.401E-06
  1922.000   3.288E-06
  1924.000   3.178E-06
  1926.000   3.072E-06
  1928.000   2.971E-06
  1930.000   2.878E-06
  1932.000   2.795E-06
  1934.000   2.721E-06
  1936.000   2.652E-06
  1938.000   2.583E-06
  1940.000   2.510E-06
  1942.000   2.430E-06
  1944.000   2.348E-06
  1946.000   2.265E-06
  1948.000   2.183E-06
  1950.000   2.105E-06
  1952.000   2.029E-06
  1954.000   1.954E-06
  1956.000   1.882E-06
  1958.000   1.814E-06
  1960.000   1.753E-06
  1962.000   1.702E-06
  1964.000   1.658E-06
  1966.000   1.618E-06
  1968.000   1.579E-06
  1970.000   1.535E-06
  1972.000   1.486E-06
  1974.000   1.434E-06
  1976.000   1.381E-06
  1978.000   1.330E-06
  1980.000   1.284E-06
  1982.000   1.243E-06
  1984.000   1.206E-06
  1986.000   1.172E-06
  1988.000   1.139E-06
  1990.000   1.107E-06
  1992.000   1.076E-06
  1994.000   1.045E-06
  1996.000   1.015E-06
  1998.000   9.875E-07
  2000.000   9.616E-07
  2002.000   9.382E-07
  2004.000   9.170E-07
  2006.000   8.972E-07
  2008.000   8.778E-07
  2010.000   8.578E-07
  2012.000   8.375E-07
  2014.000   8.174E-07
  2016.000   7.973E-07
  2018.000   7.769E-07
  2020.000   7.559E-07
  2022.000   7.335E-07
  2024.000   7.100E-07
  2026.000   6.865E-07
  2028.000   6.640E-07
  2030.000   6.437E-07
  2032.000   6.264E-07
  2034.000   6.112E-07
  2036.000   5.971E-07
  2038.000   5.830E-07
  2040.000   5.677E-07
  2042.000   5.508E-07
  2044.000   5.331E-07
  2046.000   5.151E-07
  2048.000   4.979E-07
  2050.000   4.821E-07
  2052.000   4.679E-07
  2054.000   4.551E-07
  2056.000   4.431E-07
  2058.000   4.315E-07
  2060.000   4.201E-07
  2062.000   4.088E-07
  2064.000   3.979E-07
  2066.000   3.874E-07
  2068.000   3.770E-07
  2070.000   3.668E-07
  2072.000   3.569E-07
  2074.000   3.471E-07
  2076.000   3.375E-07
  2078.000   3.283E-07
  2080.000   3.196E-07
  2082.000   3.114E-07
  2084.000   3.040E-07
  2086.000   2.968E-07
  2088.000   2.895E-07
  2090.000   2.822E-07
  2092.000   2.746E-07
  2094.000   2.669E-07
  2096.000   2.592E-07
  2098.000   2.520E-07
  2100.000   2.452E-07
  2102.000   2.391E-07
  2104.000   2.338E-07
  2106.000   2.289E-07
  2108.000   2.242E-07
  2110.000   2.198E-07
  2112.000   2.156E-07
  2114.000   2.118E-07
  2116.000   2.083E-07
  2118.000   2.050E-07
  2120.000   2.020E-07
  2122.000   1.992E-07
  2124.000   1.965E-07
  2126.000   1.942E-07
  2128.000   1.923E-07
  2130.000   1.909E-07
  2132.000   1.901E-07
  2134.000   1.899E-07
  2136.000   1.901E-07
  2138.000   1.906E-07
  2140.000   1.910E-07
  2142.000   1.916E-07
  2144.000   1.924E-07
  2146.000   1.934E-07
  2148.000   1.946E-07
  2150.000   1.962E-07
  2152.000   1.981E-07
  2154.000   2.005E-07
  2156.000   2.034E-07
  2158.000   2.064E-07
  2160.000   2.095E-07
  2162.000   2.126E-07
  2164.000   2.158E-07
  2166.000   2.196E-07
  2168.000   2.241E-07
  2170.000   2.287E-07
  2172.000   2.332E-07
  2174.000   2.383E-07
  2176.000   2.440E-07
  2178.000   2.498E-07
  2180.000   2.555E-07
  2182.000   2.622E-07
  2184.000   2.696E-07
  2186.000   2.770E-07
  2188.000   2.842E-07
  2190.000   2.920E-07
  2192.000   3.004E-07
  2194.000   3.094E-07
  2196.000   3.191E-07
  2198.000   3.288E-07
  2200.000   3.386E-07
  2202.000   3.487E-07
  2204.000   3.589E-07
  2206.000   3.699E-07
  2208.000   3.814E-07
  2210.000   3.922E-07
  2212.000   4.027E-07
  2214.000   4.151E-07
  2216.000   4.291E-07
  2218.000   4.419E-07
  2220.000   4.542E-07
  2222.000   4.686E-07
  2224.000   4.849E-07
  2226.000   5.005E-07
  2228.000   5.164E-07
  2230.000   5.352E-07
  2232.000   5.566E-07
  2234.000   5.783E-07
  2236.000   6.012E-07
  2238.000   6.281E-07
  2240.000   6.587E-07
  2242.000   6.902E-07
  2244.000   7.237E-07
  2246.000   7.628E-07
  2248.000   8.062E-07
  2250.000   8.504E-07
  2252.000   8.960E-07
  2254.000   9.461E-07
  2256.000   9.983E-07
  2258.000   1.048E-06
  2260.000   1.095E-06
  2262.000   1.145E-06
  2264.000   1.196E-06
  2266.000   1.249E-06
  2268.000   1.305E-06
  2270.000   1.367E-06
  2272.000   1.436E-06
  2274.000   1.508E-06
  2276.000   1.588E-06
  2278.000   1.679E-06
  2280.000   1.784E-06
  2282.000   1.902E-06
  2284.000   2.042E-06
  2286.000   2.214E-06
  2288.000   2.425E-06
  2290.000   2.688E-06
  2292.000   3.018E-06
  2294.000   3.433E-06
  2296.000   3.954E-06
  2298.000   4.606E-06
  2300.000   5.416E-06
  2302.000   6.409E-06
  2304.000   7.612E-06
  2306.000   9.046E-06
  2308.000   1.073E-05
  2310.000   1.268E-05
  2312.000   1.489E-05
  2314.000   1.737E-05
  2316.000   2.004E-05
  2318.000   2.289E-05
  2320.000   2.583E-05
  2322.000   2.877E-05
  2324.000   3.162E-05
  2326.000   3.430E-05
  2328.000   3.680E-05
  2330.000   3.923E-05
  2332.000   4.162E-05
  2334.000   4.402E-05
  2336.000   4.640E-05
  2338.000   4.876E-05
  2340.000   5.097E-05
  2342.000   5.292E-05
  2344.000   5.452E-05
  2346.000   5.565E-05
  2348.000   5.627E-05
  2350.000   5.630E-05
  2352.000   5.579E-05
  2354.000   5.469E-05
  2356.000   5.312E-05
  2358.000   5.111E-05
  2360.000   4.875E-05
  2362.000   4.615E-05
  2364.000   4.335E-05
  2366.000   4.042E-05
  2368.000   3.743E-05
  2370.000   3.438E-05
  2372.000   3.127E-05
  2374.000   2.804E-05
  2376.000   2.468E-05
  2378.000   2.123E-05
  2380.000   1.782E-05
  2382.000   1.459E-05
  2384.000   1.164E-05
  2386.000   9.309E-06
  2388.000   7.394E-06
  2390.000   5.787E-06
  2392.000   4.533E-06
  2394.000   3.532E-06
  2396.000   2.776E-06
  2398.000   2.275E-06
  2400.000   1.948E-06
  2402.000   1.699E-06
  2404.000   1.554E-06
  2406.000   1.456E-06
  2408.000   1.386E-06
  2410.000   1.317E-06
  2412.000   1.260E-06
  2414.000   1.217E-06
  2416.000   1.179E-06
  2418.000   1.140E-06
  2420.000   1.104E-06
  2422.000   1.073E-06
  2424.000   1.044E-06
  2426.000   1.012E-06
  2428.000   9.827E-07
  2430.000   9.566E-07
  2432.000   9.322E-07
  2434.000   9.097E-07
  2436.000   8.860E-07
  2438.000   8.594E-07
  2440.000   8.344E-07
  2442.000   8.149E-07
  2444.000   7.946E-07
  2446.000   7.698E-07
  2448.000   7.456E-07
  2450.000   7.247E-07
  2452.000   7.037E-07
  2454.000   6.810E-07
  2456.000   6.589E-07
  2458.000   6.387E-07
  2460.000   6.184E-07
  2462.000   5.972E-07
  2464.000   5.766E-07
  2466.000   5.570E-07
  2468.000   5.377E-07
  2470.000   5.183E-07
  2472.000   4.995E-07
  2474.000   4.819E-07
  2476.000   4.646E-07
  2478.000   4.471E-07
  2480.000   4.299E-07
  2482.000   4.128E-07
  2484.000   3.968E-07
  2486.000   3.827E-07
  2488.000   3.686E-07
  2490.000   3.535E-07
  2492.000   3.394E-07
  2494.000   3.267E-07
  2496.000   3.144E-07
  2498.000   3.021E-07
  2500.000   2.902E-07
  2502.000   2.789E-07
  2504.000   2.681E-07
  2506.000   2.577E-07
  2508.000   2.478E-07
  2510.000   2.384E-07
  2512.000   2.297E-07
  2514.000   2.219E-07
  2516.000   2.141E-07
  2518.000   2.062E-07
  2520.000   1.985E-07
  2522.000   1.913E-07
  2524.000   1.848E-07
  2526.000   1.793E-07
  2528.000   1.736E-07
  2530.000   1.673E-07
  2532.000   1.615E-07
  2534.000   1.563E-07
  2536.000   1.514E-07
  2538.000   1.467E-07
  2540.000   1.423E-07
  2542.000   1.380E-07
  2544.000   1.339E-07
  2546.000   1.301E-07
  2548.000   1.264E-07
  2550.000   1.231E-07
  2552.000   1.196E-07
  2554.000   1.159E-07
  2556.000   1.124E-07
  2558.000   1.093E-07
  2560.000   1.062E-07
  2562.000   1.030E-07
  2564.000   1.001E-07
  2566.000   9.757E-08
  2568.000   9.508E-08
  2570.000   9.265E-08
  2572.000   9.045E-08
  2574.000   8.853E-08
  2576.000   8.656E-08
  2578.000   8.451E-08
  2580.000   8.246E-08
  2582.000   8.041E-08
  2584.000   7.871E-08
  2586.000   7.739E-08
  2588.000   7.580E-08
  2590.000   7.391E-08
  2592.000   7.231E-08
  2594.000   7.101E-08
  2596.000   6.962E-08
  2598.000   6.813E-08
  2600.000   6.685E-08
  2602.000   6.580E-08
  2604.000   6.481E-08
  2606.000   6.388E-08
  2608.000   6.284E-08
  2610.000   6.168E-08
  2612.000   6.074E-08
  2614.000   5.998E-08
  2616.000   5.898E-08
  2618.000   5.778E-08
  2620.000   5.695E-08
  2622.000   5.642E-08
  2624.000   5.566E-08
  2626.000   5.469E-08
  2628.000   5.381E-08
  2630.000   5.301E-08
  2632.000   5.257E-08
  2634.000   5.241E-08
  2636.000   5.186E-08
  2638.000   5.102E-08
  2640.000   5.063E-08
  2642.000   5.057E-08
  2644.000   5.016E-08
  2646.000   4.950E-08
  2648.000   4.897E-08
  2650.000   4.855E-08
  2652.000   4.816E-08
  2654.000   4.781E-08
  2656.000   4.740E-08
  2658.000   4.697E-08
  2660.000   4.661E-08
  2662.000   4.631E-08
  2664.000   4.601E-08
  2666.000   4.571E-08
  2668.000   4.540E-08
  2670.000   4.507E-08
  2672.000   4.478E-08
  2674.000   4.451E-08
  2676.000   4.420E-08
  2678.000   4.387E-08
  2680.000   4.358E-08
  2682.000   4.331E-08
  2684.000   4.304E-08
  2686.000   4.277E-08
  2688.000   4.248E-08
  2690.000   4.220E-08
  2692.000   4.197E-08
  2694.000   4.177E-08
  2696.000   4.155E-08
  2698.000   4.130E-08
  2700.000   4.106E-08
  2702.000   4.080E-08
  2704.000   4.052E-08
  2706.000   4.023E-08
  2708.000   3.993E-08
  2710.000   3.964E-08
  2712.000   3.941E-08
  2714.000   3.919E-08
  2716.000   3.895E-08
  2718.000   3.871E-08
  2720.000   3.850E-08
  2722.000   3.831E-08
  2724.000   3.813E-08
  2726.000   3.795E-08
  2728.000   3.776E-08
  2730.000   3.756E-08
  2732.000   3.740E-08
  2734.000   3.725E-08
  2736.000   3.707E-08
  2738.000   3.688E-08
  2740.000   3.670E-08
  2742.000   3.652E-08
  2744.000   3.632E-08
  2746.000   3.612E-08
  2748.000   3.591E-08
  2750.000   3.570E-08
  2752.000   3.552E-08
  2754.000   3.534E-08
  2756.000   3.515E-08
  2758.000   3.496E-08
  2760.000   3.479E-08
  2762.000   3.464E-08
  2764.000   3.449E-08
  2766.000   3.436E-08
  2768.000   3.421E-08
  2770.000   3.406E-08
  2772.000   3.393E-08
  2774.000   3.381E-08
  2776.000   3.367E-08
  2778.000   3.352E-08
  2780.000   3.337E-08
  2782.000   3.320E-08
  2784.000   3.302E-08
  2786.000   3.283E-08
  2788.000   3.262E-08
  2790.000   3.240E-08
  2792.000   3.219E-08
  2794.000   3.197E-08
  2796.000   3.173E-08
  2798.000   3.148E-08
  2800.000   3.123E-08
  2802.000   3.098E-08
  2804.000   3.073E-08
  2806.000   3.047E-08
  2808.000   3.020E-08
  2810.000   2.994E-08
  2812.000   2.968E-08
  2814.000   2.942E-08
  2816.000   2.916E-08
  2818.000   2.889E-08
  2820.000   2.863E-08
  2822.000   2.838E-08
  2824.000   2.813E-08
  2826.000   2.788E-08
  2828.000   2.764E-08
  2830.000   2.741E-08
  2832.000   2.721E-08
  2834.000   2.702E-08
  2836.000   2.683E-08
  2838.000   2.666E-08
  2840.000   2.650E-08
  2842.000   2.636E-08
  2844.000   2.623E-08
  2846.000   2.611E-08
  2848.000   2.600E-08
  2850.000   2.591E-08
  2852.000   2.584E-08
  2854.000   2.578E-08
  2856.000   2.573E-08
  2858.000   2.571E-08
  2860.000   2.570E-08
  2862.000   2.573E-08
  2864.000   2.577E-08
  2866.000   2.584E-08
  2868.000   2.591E-08
  2870.000   2.600E-08
  2872.000   2.611E-08
  2874.000   2.624E-08
  2876.000   2.637E-08
  2878.000   2.653E-08
  2880.000   2.672E-08
  2882.000   2.693E-08
  2884.000   2.716E-08
  2886.000   2.742E-08
  2888.000   2.771E-08
  2890.000   2.804E-08
  2892.000   2.841E-08
  2894.000   2.881E-08
  2896.000   2.930E-08
  2898.000   2.969E-08
  2900.000   2.982E-08
  2902.000   3.015E-08
  2904.000   3.088E-08
  2906.000   3.171E-08
  2908.000   3.253E-08
  2910.000   3.337E-08
  2912.000   3.421E-08
  2914.000   3.505E-08
  2916.000   3.594E-08
  2918.000   3.690E-08
  2920.000   3.798E-08
  2922.000   3.916E-08
  2924.000   4.039E-08
  2926.000   4.174E-08
  2928.000   4.323E-08
  2930.000   4.492E-08
  2932.000   4.677E-08
  2934.000   4.877E-08
  2936.000   5.094E-08
  2938.000   5.331E-08
  2940.000   5.591E-08
  2942.000   5.871E-08
  2944.000   6.172E-08
  2946.000   6.494E-08
  2948.000   6.837E-08
  2950.000   7.204E-08
  2952.000   7.591E-08
  2954.000   7.997E-08
  2956.000   8.427E-08
  2958.000   8.887E-08
  2960.000   9.381E-08
  2962.000   9.903E-08
  2964.000   1.045E-07
  2966.000   1.103E-07
  2968.000   1.166E-07
  2970.000   1.233E-07
  2972.000   1.305E-07
  2974.000   1.381E-07
  2976.000   1.462E-07
  2978.000   1.549E-07
  2980.000   1.641E-07
  2982.000   1.740E-07
  2984.000   1.846E-07
  2986.000   1.957E-07
  2988.000   2.072E-07
  2990.000   2.189E-07
  2992.000   2.307E-07
  2994.000   2.427E-07
  2996.000   2.551E-07
  2998.000   2.679E-07
  3000.000   2.811E-07
  3002.000   2.950E-07
  3004.000   3.094E-07
  3006.000   3.241E-07
  3008.000   3.389E-07
  3010.000   3.537E-07
  3012.000   3.683E-07
  3014.000   3.828E-07
  3016.000   3.975E-07
  3018.000   4.124E-07
  3020.000   4.276E-07
  3022.000   4.431E-07
  3024.000   4.589E-07
  3026.000   4.750E-07
  3028.000   4.913E-07
  3030.000   5.079E-07
  3032.000   5.250E-07
  3034.000   5.426E-07
  3036.000   5.604E-07
  3038.000   5.778E-07
  3040.000   5.945E-07
  3042.000   6.103E-07
  3044.000   6.255E-07
  3046.000   6.403E-07
  3048.000   6.549E-07
  3050.000   6.696E-07
  3052.000   6.844E-07
  3054.000   6.991E-07
  3056.000   7.137E-07
  3058.000   7.282E-07
  3060.000   7.425E-07
  3062.000   7.565E-07
  3064.000   7.703E-07
  3066.000   7.839E-07
  3068.000   7.977E-07
  3070.000   8.118E-07
  3072.000   8.266E-07
  3074.000   8.420E-07
  3076.000   8.573E-07
  3078.000   8.721E-07
  3080.000   8.858E-07
  3082.000   8.985E-07
  3084.000   9.107E-07
  3086.000   9.220E-07
  3088.000   9.324E-07
  3090.000   9.415E-07
  3092.000   9.495E-07
  3094.000   9.565E-07
  3096.000   9.623E-07
  3098.000   9.670E-07
  3100.000   9.705E-07
  3102.000   9.727E-07
  3104.000   9.738E-07
  3106.000   9.737E-07
  3108.000   9.722E-07
  3110.000   9.693E-07
  3112.000   9.649E-07
  3114.000   9.590E-07
  3116.000   9.518E-07
  3118.000   9.433E-07
  3120.000   9.337E-07
  3122.000   9.224E-07
  3124.000   9.094E-07
  3126.000   8.954E-07
  3128.000   8.812E-07
  3130.000   8.675E-07
  3132.000   8.543E-07
  3134.000   8.412E-07
  3136.000   8.281E-07
  3138.000   8.151E-07
  3140.000   8.021E-07
  3142.000   7.888E-07
  3144.000   7.752E-07
  3146.000   7.619E-07
  3148.000   7.494E-07
  3150.000   7.383E-07
  3152.000   7.284E-07
  3154.000   7.194E-07
  3156.000   7.114E-07
  3158.000   7.048E-07
  3160.000   6.998E-07
  3162.000   6.963E-07
  3164.000   6.941E-07
  3166.000   6.934E-07
  3168.000   6.942E-07
  3170.000   6.967E-07
  3172.000   7.011E-07
  3174.000   7.074E-07
  3176.000   7.151E-07
  3178.000   7.238E-07
  3180.000   7.333E-07
  3182.000   7.438E-07
  3184.000   7.556E-07
  3186.000   7.681E-07
  3188.000   7.808E-07
  3190.000   7.932E-07
  3192.000   8.054E-07
  3194.000   8.177E-07
  3196.000   8.300E-07
  3198.000   8.419E-07
  3200.000   8.530E-07
  3202.000   8.635E-07
  3204.000   8.737E-07
  3206.000   8.832E-07
  3208.000   8.919E-07
  3210.000   8.993E-07
  3212.000   9.055E-07
  3214.000   9.105E-07
  3216.000   9.146E-07
  3218.000   9.178E-07
  3220.000   9.204E-07
  3222.000   9.223E-07
  3224.000   9.235E-07
  3226.000   9.239E-07
  3228.000   9.234E-07
  3230.000   9.220E-07
  3232.000   9.194E-07
  3234.000   9.158E-07
  3236.000   9.113E-07
  3238.000   9.062E-07
  3240.000   9.008E-07
  3242.000   8.950E-07
  3244.000   8.886E-07
  3246.000   8.818E-07
  3248.000   8.744E-07
  3250.000   8.665E-07
  3252.000   8.578E-07
  3254.000   8.484E-07
  3256.000   8.385E-07
  3258.000   8.285E-07
  3260.000   8.185E-07
  3262.000   8.086E-07
  3264.000   7.986E-07
  3266.000   7.885E-07
  3268.000   7.782E-07
  3270.000   7.677E-07
  3272.000   7.569E-07
  3274.000   7.457E-07
  3276.000   7.344E-07
  3278.000   7.232E-07
  3280.000   7.120E-07
  3282.000   7.010E-07
  3284.000   6.900E-07
  3286.000   6.790E-07
  3288.000   6.682E-07
  3290.000   6.577E-07
  3292.000   6.475E-07
  3294.000   6.377E-07
  3296.000   6.280E-07
  3298.000   6.183E-07
  3300.000   6.084E-07
  3302.000   5.980E-07
  3304.000   5.872E-07
  3306.000   5.765E-07
  3308.000   5.662E-07
  3310.000   5.567E-07
  3312.000   5.478E-07
  3314.000   5.393E-07
  3316.000   5.315E-07
  3318.000   5.244E-07
  3320.000   5.184E-07
  3322.000   5.134E-07
  3324.000   5.094E-07
  3326.000   5.062E-07
  3328.000   5.039E-07
  3330.000   5.023E-07
  3332.000   5.018E-07
  3334.000   5.023E-07
  3336.000   5.035E-07
  3338.000   5.051E-07
  3340.000   5.066E-07
  3342.000   5.077E-07
  3344.000   5.088E-07
  3346.000   5.103E-07
  3348.000   5.125E-07
  3350.000   5.158E-07
  3352.000   5.205E-07
  3354.000   5.262E-07
  3356.000   5.327E-07
  3358.000   5.397E-07
  3360.000   5.472E-07
  3362.000   5.551E-07
  3364.000   5.637E-07
  3366.000   5.728E-07
  3368.000   5.820E-07
  3370.000   5.913E-07
  3372.000   6.006E-07
  3374.000   6.101E-07
  3376.000   6.197E-07
  3378.000   6.296E-07
  3380.000   6.399E-07
  3382.000   6.505E-07
  3384.000   6.613E-07
  3386.000   6.725E-07
  3388.000   6.843E-07
  3390.000   6.968E-07
  3392.000   7.100E-07
  3394.000   7.236E-07
  3396.000   7.380E-07
  3398.000   7.532E-07
  3400.000   7.697E-07
  3402.000   7.871E-07
  3404.000   8.053E-07
  3406.000   8.246E-07
  3408.000   8.454E-07
  3410.000   8.678E-07
  3412.000   8.924E-07
  3414.000   9.189E-07
  3416.000   9.468E-07
  3418.000   9.752E-07
  3420.000   1.004E-06
  3422.000   1.032E-06
  3424.000   1.059E-06
  3426.000   1.088E-06
  3428.000   1.118E-06
  3430.000   1.150E-06
  3432.000   1.183E-06
  3434.000   1.218E-06
  3436.000   1.254E-06
  3438.000   1.293E-06
  3440.000   1.334E-06
  3442.000   1.377E-06
  3444.000   1.423E-06
  3446.000   1.471E-06
  3448.000   1.521E-06
  3450.000   1.572E-06
  3452.000   1.625E-06
  3454.000   1.680E-06
  3456.000   1.736E-06
  3458.000   1.795E-06
  3460.000   1.858E-06
  3462.000   1.925E-06
  3464.000   1.995E-06
  3466.000   2.068E-06
  3468.000   2.144E-06
  3470.000   2.221E-06
  3472.000   2.300E-06
  3474.000   2.380E-06
  3476.000   2.463E-06
  3478.000   2.550E-06
  3480.000   2.641E-06
  3482.000   2.735E-06
  3484.000   2.833E-06
  3486.000   2.935E-06
  3488.000   3.041E-06
  3490.000   3.154E-06
  3492.000   3.272E-06
  3494.000   3.396E-06
  3496.000   3.525E-06
  3498.000   3.657E-06
  3500.000   3.794E-06
  3502.000   3.933E-06
  3504.000   4.074E-06
  3506.000   4.221E-06
  3508.000   4.372E-06
  3510.000   4.531E-06
  3512.000   4.694E-06
  3514.000   4.862E-06
  3516.000   5.037E-06
  3518.000   5.220E-06
  3520.000   5.414E-06
  3522.000   5.617E-06
  3524.000   5.828E-06
  3526.000   6.049E-06
  3528.000   6.282E-06
  3530.000   6.531E-06
  3532.000   6.796E-06
  3534.000   7.075E-06
  3536.000   7.367E-06
  3538.000   7.670E-06
  3540.000   7.984E-06
  3542.000   8.304E-06
  3544.000   8.630E-06
  3546.000   8.970E-06
  3548.000   9.329E-06
  3550.000   9.714E-06
  3552.000   1.012E-05
  3554.000   1.054E-05
  3556.000   1.099E-05
  3558.000   1.147E-05
  3560.000   1.199E-05
  3562.000   1.255E-05
  3564.000   1.315E-05
  3566.000   1.378E-05
  3568.000   1.445E-05
  3570.000   1.515E-05
  3572.000   1.587E-05
  3574.000   1.661E-05
  3576.000   1.739E-05
  3578.000   1.822E-05
  3580.000   1.913E-05
  3582.000   2.013E-05
  3584.000   2.121E-05
  3586.000   2.233E-05
  3588.000   2.350E-05
  3590.000   2.469E-05
  3592.000   2.589E-05
  3594.000   2.712E-05
  3596.000   2.839E-05
  3598.000   2.971E-05
  3600.000   3.110E-05
  3602.000   3.255E-05
  3604.000   3.406E-05
  3606.000   3.563E-05
  3608.000   3.723E-05
  3610.000   3.888E-05
  3612.000   4.056E-05
  3614.000   4.227E-05
  3616.000   4.403E-05
  3618.000   4.584E-05
  3620.000   4.770E-05
  3622.000   4.965E-05
  3624.000   5.168E-05
  3626.000   5.376E-05
  3628.000   5.583E-05
  3630.000   5.788E-05
  3632.000   5.987E-05
  3634.000   6.183E-05
  3636.000   6.379E-05
  3638.000   6.579E-05
  3640.000   6.786E-05
  3642.000   7.005E-05
  3644.000   7.235E-05
  3646.000   7.467E-05
  3648.000   7.692E-05
  3650.000   7.901E-05
  3652.000   8.092E-05
  3654.000   8.272E-05
  3656.000   8.442E-05
  3658.000   8.607E-05
  3660.000   8.769E-05
  3662.000   8.931E-05
  3664.000   9.090E-05
  3666.000   9.244E-05
  3668.000   9.388E-05
  3670.000   9.521E-05
  3672.000   9.640E-05
  3674.000   9.747E-05
  3676.000   9.846E-05
  3678.000   9.939E-05
  3680.000   1.003E-04
  3682.000   1.012E-04
  3684.000   1.020E-04
  3686.000   1.028E-04
  3688.000   1.036E-04
  3690.000   1.043E-04
  3692.000   1.049E-04
  3694.000   1.055E-04
  3696.000   1.060E-04
  3698.000   1.065E-04
  3700.000   1.071E-04
  3702.000   1.077E-04
  3704.000   1.083E-04
  3706.000   1.089E-04
  3708.000   1.095E-04
  3710.000   1.101E-04
  3712.000   1.108E-04
  3714.000   1.115E-04
  3716.000   1.123E-04
  3718.000   1.130E-04
  3720.000   1.137E-04
  3722.000   1.143E-04
  3724.000   1.150E-04
  3726.000   1.156E-04
  3728.000   1.162E-04
  3730.000   1.168E-04
  3732.000   1.173E-04
  3734.000   1.178E-04
  3736.000   1.182E-04
  3738.000   1.186E-04
  3740.000   1.189E-04
  3742.000   1.191E-04
  3744.000   1.193E-04
  3746.000   1.194E-04
  3748.000   1.194E-04
  3750.000   1.194E-04
  3752.000   1.193E-04
  3754.000   1.191E-04
  3756.000   1.189E-04
  3758.000   1.187E-04
  3760.000   1.186E-04
  3762.000   1.184E-04
  3764.000   1.183E-04
  3766.000   1.181E-04
  3768.000   1.180E-04
  3770.000   1.178E-04
  3772.000   1.177E-04
  3774.000   1.175E-04
  3776.000   1.173E-04
  3778.000   1.171E-04
  3780.000   1.170E-04
  3782.000   1.171E-04
  3784.000   1.171E-04
  3786.000   1.172E-04
  3788.000   1.175E-04
  3790.000   1.178E-04
  3792.000   1.183E-04
  3794.000   1.189E-04
  3796.000   1.196E-04
  3798.000   1.203E-04
  3800.000   1.211E-04
  3802.000   1.220E-04
  3804.000   1.230E-04
  3806.000   1.241E-04
  3808.000   1.251E-04
  3810.000   1.258E-04
  3812.000   1.264E-04
  3814.000   1.268E-04
  3816.000   1.270E-04
  3818.000   1.272E-04
  3820.000   1.273E-04
  3822.000   1.273E-04
  3824.000   1.273E-04
  3826.000   1.272E-04
  3828.000   1.268E-04
  3830.000   1.262E-04
  3832.000   1.252E-04
  3834.000   1.238E-04
  3836.000   1.223E-04
  3838.000   1.205E-04
  3840.000   1.187E-04
  3842.000   1.166E-04
  3844.000   1.144E-04
  3846.000   1.120E-04
  3848.000   1.095E-04
  3850.000   1.069E-04
  3852.000   1.044E-04
  3854.000   1.018E-04
  3856.000   9.907E-05
  3858.000   9.629E-05
  3860.000   9.341E-05
  3862.000   9.039E-05
  3864.000   8.724E-05
  3866.000   8.402E-05
  3868.000   8.081E-05
  3870.000   7.767E-05
  3872.000   7.464E-05
  3874.000   7.165E-05
  3876.000   6.869E-05
  3878.000   6.573E-05
  3880.000   6.274E-05
  3882.000   5.968E-05
  3884.000   5.656E-05
  3886.000   5.346E-05
  3888.000   5.047E-05
  3890.000   4.765E-05
  3892.000   4.504E-05
  3894.000   4.256E-05
  3896.000   4.021E-05
  3898.000   3.797E-05
  3900.000   3.584E-05
  3902.000   3.381E-05
  3904.000   3.190E-05
  3906.000   3.009E-05
  3908.000   2.838E-05
  3910.000   2.675E-05
  3912.000   2.520E-05
  3914.000   2.374E-05
  3916.000   2.237E-05
  3918.000   2.109E-05
  3920.000   1.987E-05
  3922.000   1.874E-05
  3924.000   1.771E-05
  3926.000   1.674E-05
  3928.000   1.583E-05
  3930.000   1.495E-05
  3932.000   1.410E-05
  3934.000   1.329E-05
  3936.000   1.254E-05
  3938.000   1.183E-05
  3940.000   1.119E-05
  3942.000   1.061E-05
  3944.000   1.010E-05
  3946.000   9.637E-06
  3948.000   9.206E-06
  3950.000   8.786E-06
  3952.000   8.379E-06
  3954.000   7.996E-06
  3956.000   7.637E-06
  3958.000   7.300E-06
  3960.000   6.984E-06
  3962.000   6.693E-06
  3964.000   6.427E-06
  3966.000   6.181E-06
  3968.000   5.947E-06
  3970.000   5.720E-06
  3972.000   5.499E-06
  3974.000   5.288E-06
  3976.000   5.088E-06
  3978.000   4.898E-06
  3980.000   4.717E-06
  3982.000   4.545E-06
  3984.000   4.384E-06
  3986.000   4.232E-06
  3988.000   4.089E-06
  3990.000   3.954E-06
  3992.000   3.828E-06
  3994.000   3.712E-06
  3996.000   3.604E-06
  3998.000   3.501E-06
  4000.000   3.399E-06
  4002.000   3.299E-06
  4004.000   3.203E-06
  4006.000   3.110E-06
  4008.000   3.022E-06
  4010.000   2.937E-06
  4012.000   2.858E-06
  4014.000   2.784E-06
  4016.000   2.713E-06
  4018.000   2.645E-06
  4020.000   2.577E-06
  4022.000   2.509E-06
  4024.000   2.443E-06
  4026.000   2.378E-06
  4028.000   2.316E-06
  4030.000   2.255E-06
  4032.000   2.197E-06
  4034.000   2.142E-06
  4036.000   2.088E-06
  4038.000   2.035E-06
  4040.000   1.984E-06
  4042.000   1.934E-06
  4044.000   1.885E-06
  4046.000   1.837E-06
  4048.000   1.790E-06
  4050.000   1.745E-06
  4052.000   1.700E-06
  4054.000   1.656E-06
  4056.000   1.613E-06
  4058.000   1.571E-06
  4060.000   1.531E-06
  4062.000   1.492E-06
  4064.000   1.454E-06
  4066.000   1.418E-06
  4068.000   1.383E-06
  4070.000   1.349E-06
  4072.000   1.315E-06
  4074.000   1.282E-06
  4076.000   1.250E-06
  4078.000   1.218E-06
  4080.000   1.188E-06
  4082.000   1.158E-06
  4084.000   1.130E-06
  4086.000   1.102E-06
  4088.000   1.075E-06
  4090.000   1.049E-06
  4092.000   1.024E-06
  4094.000   1.000E-06
  4096.000   9.770E-07
  4098.000   9.545E-07
  4100.000   9.325E-07
  4102.000   9.111E-07
  4104.000   8.904E-07
  4106.000   8.703E-07
  4108.000   8.505E-07
  4110.000   8.309E-07
  4112.000   8.113E-07
  4114.000   7.919E-07
  4116.000   7.729E-07
  4118.000   7.543E-07
  4120.000   7.364E-07
  4122.000   7.194E-07
  4124.000   7.031E-07
  4126.000   6.872E-07
  4128.000   6.716E-07
  4130.000   6.561E-07
  4132.000   6.404E-07
  4134.000   6.249E-07
  4136.000   6.096E-07
  4138.000   5.947E-07
  4140.000   5.803E-07
  4142.000   5.665E-07
  4144.000   5.531E-07
  4146.000   5.402E-07
  4148.000   5.276E-07
  4150.000   5.155E-07
  4152.000   5.038E-07
  4154.000   4.927E-07
  4156.000   4.819E-07
  4158.000   4.712E-07
  4160.000   4.605E-07
  4162.000   4.496E-07
  4164.000   4.387E-07
  4166.000   4.280E-07
  4168.000   4.174E-07
  4170.000   4.072E-07
  4172.000   3.975E-07
  4174.000   3.880E-07
  4176.000   3.789E-07
  4178.000   3.699E-07
  4180.000   3.611E-07
  4182.000   3.525E-07
  4184.000   3.440E-07
  4186.000   3.357E-07
  4188.000   3.276E-07
  4190.000   3.198E-07
  4192.000   3.123E-07
  4194.000   3.050E-07
  4196.000   2.979E-07
  4198.000   2.910E-07
  4200.000   2.841E-07
  4202.000   2.774E-07
  4204.000   2.708E-07
  4206.000   2.644E-07
  4208.000   2.581E-07
  4210.000   2.519E-07
  4212.000   2.458E-07
  4214.000   2.399E-07
  4216.000   2.340E-07
  4218.000   2.283E-07
  4220.000   2.227E-07
  4222.000   2.173E-07
  4224.000   2.119E-07
  4226.000   2.067E-07
  4228.000   2.016E-07
  4230.000   1.967E-07
  4232.000   1.918E-07
  4234.000   1.871E-07
  4236.000   1.826E-07
  4238.000   1.781E-07
  4240.000   1.737E-07
  4242.000   1.693E-07
  4244.000   1.651E-07
  4246.000   1.609E-07
  4248.000   1.569E-07
  4250.000   1.529E-07
  4252.000   1.491E-07
  4254.000   1.453E-07
  4256.000   1.417E-07
  4258.000   1.382E-07
  4260.000   1.348E-07
  4262.000   1.316E-07
  4264.000   1.285E-07
  4266.000   1.256E-07
  4268.000   1.227E-07
  4270.000   1.200E-07
  4272.000   1.174E-07
  4274.000   1.149E-07
  4276.000   1.125E-07
  4278.000   1.103E-07
  4280.000   1.080E-07
  4282.000   1.059E-07
  4284.000   1.038E-07
  4286.000   1.018E-07
  4288.000   9.981E-08
  4290.000   9.788E-08
  4292.000   9.597E-08
  4294.000   9.411E-08
  4296.000   9.229E-08
  4298.000   9.049E-08
  4300.000   8.873E-08
  4302.000   8.698E-08
  4304.000   8.526E-08
  4306.000   8.357E-08
  4308.000   8.191E-08
  4310.000   8.029E-08
  4312.000   7.872E-08
  4314.000   7.718E-08
  4316.000   7.568E-08
  4318.000   7.422E-08
  4320.000   7.279E-08
  4322.000   7.139E-08
  4324.000   7.004E-08
  4326.000   6.871E-08
  4328.000   6.741E-08
  4330.000   6.613E-08
  4332.000   6.487E-08
  4334.000   6.363E-08
  4336.000   6.242E-08
  4338.000   6.124E-08
  4340.000   6.008E-08
  4342.000   5.898E-08
  4344.000   5.791E-08
  4346.000   5.687E-08
  4348.000   5.585E-08
  4350.000   5.485E-08
  4352.000   5.388E-08
  4354.000   5.294E-08
  4356.000   5.201E-08
  4358.000   5.111E-08
  4360.000   5.023E-08
  4362.000   4.936E-08
  4364.000   4.851E-08
  4366.000   4.769E-08
  4368.000   4.688E-08
  4370.000   4.609E-08
  4372.000   4.533E-08
  4374.000   4.458E-08
  4376.000   4.385E-08
  4378.000   4.313E-08
  4380.000   4.243E-08
  4382.000   4.175E-08
  4384.000   4.108E-08
  4386.000   4.043E-08
  4388.000   3.979E-08
  4390.000   3.917E-08
  4392.000   3.856E-08
  4394.000   3.797E-08
  4396.000   3.739E-08
  4398.000   3.682E-08
  4400.000   3.626E-08
  4402.000   3.572E-08
  4404.000   3.519E-08
  4406.000   3.467E-08
  4408.000   3.417E-08
  4410.000   3.367E-08
  4412.000   3.319E-08
  4414.000   3.273E-08
  4416.000   3.228E-08
  4418.000   3.184E-08
  4420.000   3.141E-08
  4422.000   3.099E-08
  4424.000   3.058E-08
  4426.000   3.017E-08
  4428.000   2.978E-08
  4430.000   2.938E-08
  4432.000   2.900E-08
  4434.000   2.863E-08
  4436.000   2.827E-08
  4438.000   2.792E-08
  4440.000   2.757E-08
  4442.000   2.724E-08
  4444.000   2.691E-08
  4446.000   2.659E-08
  4448.000   2.628E-08
  4450.000   2.598E-08
  4452.000   2.568E-08
  4454.000   2.540E-08
  4456.000   2.512E-08
  4458.000   2.484E-08
  4460.000   2.458E-08
  4462.000   2.432E-08
  4464.000   2.408E-08
  4466.000   2.384E-08
  4468.000   2.361E-08
  4470.000   2.338E-08
  4472.000   2.316E-08
  4474.000   2.295E-08
  4476.000   2.274E-08
  4478.000   2.254E-08
  4480.000   2.236E-08
  4482.000   2.219E-08
  4484.000   2.205E-08
  4486.000   2.191E-08
  4488.000   2.177E-08
  4490.000   2.164E-08
  4492.000   2.153E-08
  4494.000   2.142E-08
  4496.000   2.131E-08
  4498.000   2.122E-08
  4500.000   2.113E-08
  4502.000   2.105E-08
  4504.000   2.098E-08
  4506.000   2.092E-08
  4508.000   2.086E-08
  4510.000   2.081E-08
  4512.000   2.077E-08
  4514.000   2.075E-08
  4516.000   2.073E-08
  4518.000   2.071E-08
  4520.000   2.070E-08
  4522.000   2.069E-08
  4524.000   2.069E-08
  4526.000   2.069E-08
  4528.000   2.070E-08
  4530.000   2.072E-08
  4532.000   2.073E-08
  4534.000   2.075E-08
  4536.000   2.078E-08
  4538.000   2.081E-08
  4540.000   2.085E-08
  4542.000   2.089E-08
  4544.000   2.094E-08
  4546.000   2.099E-08
  4548.000   2.104E-08
  4550.000   2.109E-08
  4552.000   2.114E-08
  4554.000   2.119E-08
  4556.000   2.126E-08
  4558.000   2.132E-08
  4560.000   2.138E-08
  4562.000   2.143E-08
  4564.000   2.149E-08
  4566.000   2.156E-08
  4568.000   2.162E-08
  4570.000   2.169E-08
  4572.000   2.175E-08
  4574.000   2.181E-08
  4576.000   2.186E-08
  4578.000   2.192E-08
  4580.000   2.198E-08
  4582.000   2.205E-08
  4584.000   2.213E-08
  4586.000   2.221E-08
  4588.000   2.231E-08
  4590.000   2.240E-08
  4592.000   2.246E-08
  4594.000   2.250E-08
  4596.000   2.260E-08
  4598.000   2.276E-08
  4600.000   2.289E-08
  4602.000   2.299E-08
  4604.000   2.308E-08
  4606.000   2.316E-08
  4608.000   2.329E-08
  4610.000   2.349E-08
  4612.000   2.365E-08
  4614.000   2.377E-08
  4616.000   2.387E-08
  4618.000   2.405E-08
  4620.000   2.413E-08
  4622.000   2.409E-08
  4624.000   2.408E-08
  4626.000   2.402E-08
  4628.000   2.390E-08
  4630.000   2.379E-08
  4632.000   2.368E-08
  4634.000   2.356E-08
  4636.000   2.337E-08
  4638.000   2.317E-08
  4640.000   2.297E-08
  4642.000   2.277E-08
  4644.000   2.256E-08
  4646.000   2.236E-08
  4648.000   2.217E-08
  4650.000   2.198E-08
  4652.000   2.178E-08
  4654.000   2.158E-08
  4656.000   2.137E-08
  4658.000   2.117E-08
  4660.000   2.098E-08
  4662.000   2.080E-08
  4664.000   2.062E-08
  4666.000   2.045E-08
  4668.000   2.029E-08
  4670.000   2.013E-08
  4672.000   1.999E-08
  4674.000   1.986E-08
  4676.000   1.974E-08
  4678.000   1.964E-08
  4680.000   1.955E-08
  4682.000   1.947E-08
  4684.000   1.941E-08
  4686.000   1.936E-08
  4688.000   1.931E-08
  4690.000   1.927E-08
  4692.000   1.924E-08
  4694.000   1.921E-08
  4696.000   1.919E-08
  4698.000   1.916E-08
  4700.000   1.913E-08
  4702.000   1.904E-08
  4704.000   1.895E-08
  4706.000   1.886E-08
  4708.000   1.878E-08
  4710.000   1.869E-08
  4712.000   1.860E-08
  4714.000   1.851E-08
  4716.000   1.842E-08
  4718.000   1.833E-08
  4720.000   1.824E-08
  4722.000   1.815E-08
  4724.000   1.807E-08
  4726.000   1.798E-08
  4728.000   1.790E-08
  4730.000   1.781E-08
  4732.000   1.773E-08
  4734.000   1.765E-08
  4736.000   1.757E-08
  4738.000   1.748E-08
  4740.000   1.739E-08
  4742.000   1.730E-08
  4744.000   1.721E-08
  4746.000   1.711E-08
  4748.000   1.702E-08
  4750.000   1.693E-08
  4752.000   1.684E-08
  4754.000   1.676E-08
  4756.000   1.668E-08
  4758.000   1.660E-08
  4760.000   1.652E-08
  4762.000   1.645E-08
  4764.000   1.639E-08
  4766.000   1.633E-08
  4768.000   1.628E-08
  4770.000   1.623E-08
  4772.000   1.619E-08
  4774.000   1.616E-08
  4776.000   1.614E-08
  4778.000   1.611E-08
  4780.000   1.609E-08
  4782.000   1.606E-08
  4784.000   1.604E-08
  4786.000   1.603E-08
  4788.000   1.602E-08
  4790.000   1.603E-08
  4792.000   1.604E-08
  4794.000   1.605E-08
  4796.000   1.607E-08
  4798.000   1.610E-08
  4800.000   1.614E-08
  4802.000   1.621E-08
  4804.000   1.628E-08
  4806.000   1.637E-08
  4808.000   1.649E-08
  4810.000   1.662E-08
  4812.000   1.679E-08
  4814.000   1.699E-08
  4816.000   1.723E-08
  4818.000   1.749E-08
  4820.000   1.779E-08
  4822.000   1.811E-08
  4824.000   1.844E-08
  4826.000   1.879E-08
  4828.000   1.913E-08
  4830.000   1.947E-08
  4832.000   1.979E-08
  4834.000   2.011E-08
  4836.000   2.044E-08
  4838.000   2.077E-08
  4840.000   2.111E-08
  4842.000   2.146E-08
  4844.000   2.181E-08
  4846.000   2.216E-08
  4848.000   2.249E-08
  4850.000   2.277E-08
  4852.000   2.301E-08
  4854.000   2.319E-08
  4856.000   2.331E-08
  4858.000   2.338E-08
  4860.000   2.338E-08
  4862.000   2.334E-08
  4864.000   2.325E-08
  4866.000   2.313E-08
  4868.000   2.299E-08
  4870.000   2.284E-08
  4872.000   2.268E-08
  4874.000   2.251E-08
  4876.000   2.234E-08
  4878.000   2.215E-08
  4880.000   2.194E-08
  4882.000   2.171E-08
  4884.000   2.148E-08
  4886.000   2.126E-08
  4888.000   2.107E-08
  4890.000   2.094E-08
  4892.000   2.087E-08
  4894.000   2.086E-08
  4896.000   2.092E-08
  4898.000   2.104E-08
  4900.000   2.121E-08
  4902.000   2.142E-08
  4904.000   2.168E-08
  4906.000   2.197E-08
  4908.000   2.229E-08
  4910.000   2.264E-08
  4912.000   2.303E-08
  4914.000   2.346E-08
  4916.000   2.391E-08
  4918.000   2.440E-08
  4920.000   2.493E-08
  4922.000   2.550E-08
  4924.000   2.612E-08
  4926.000   2.682E-08
  4928.000   2.760E-08
  4930.000   2.848E-08
  4932.000   2.948E-08
  4934.000   3.059E-08
  4936.000   3.183E-08
  4938.000   3.324E-08
  4940.000   3.480E-08
  4942.000   3.652E-08
  4944.000   3.838E-08
  4946.000   4.037E-08
  4948.000   4.248E-08
  4950.000   4.468E-08
  4952.000   4.692E-08
  4954.000   4.915E-08
  4956.000   5.137E-08
  4958.000   5.360E-08
  4960.000   5.587E-08
  4962.000   5.823E-08
  4964.000   6.067E-08
  4966.000   6.316E-08
  4968.000   6.566E-08
  4970.000   6.808E-08
  4972.000   7.036E-08
  4974.000   7.245E-08
  4976.000   7.430E-08
  4978.000   7.586E-08
  4980.000   7.713E-08
  4982.000   7.811E-08
  4984.000   7.881E-08
  4986.000   7.930E-08
  4988.000   7.964E-08
  4990.000   7.989E-08
  4992.000   8.009E-08
  4994.000   8.028E-08
  4996.000   8.047E-08
  4998.000   8.069E-08
  5000.000   8.094E-08
  5002.000   8.120E-08
  5004.000   8.146E-08
  5006.000   8.173E-08
  5008.000   8.205E-08
  5010.000   8.249E-08
  5012.000   8.311E-08
  5014.000   8.397E-08
  5016.000   8.514E-08
  5018.000   8.665E-08
  5020.000   8.852E-08
  5022.000   9.071E-08
  5024.000   9.315E-08
  5026.000   9.583E-08
  5028.000   9.871E-08
  5030.000   1.018E-07
  5032.000   1.050E-07
  5034.000   1.083E-07
  5036.000   1.118E-07
  5038.000   1.154E-07
  5040.000   1.192E-07
  5042.000   1.231E-07
  5044.000   1.272E-07
  5046.000   1.314E-07
  5048.000   1.358E-07
  5050.000   1.404E-07
  5052.000   1.451E-07
  5054.000   1.501E-07
  5056.000   1.552E-07
  5058.000   1.606E-07
  5060.000   1.663E-07
  5062.000   1.723E-07
  5064.000   1.786E-07
  5066.000   1.851E-07
  5068.000   1.920E-07
  5070.000   1.992E-07
  5072.000   2.068E-07
  5074.000   2.147E-07
  5076.000   2.229E-07
  5078.000   2.313E-07
  5080.000   2.399E-07
  5082.000   2.486E-07
  5084.000   2.574E-07
  5086.000   2.666E-07
  5088.000   2.761E-07
  5090.000   2.862E-07
  5092.000   2.967E-07
  5094.000   3.075E-07
  5096.000   3.187E-07
  5098.000   3.305E-07
  5100.000   3.430E-07
  5102.000   3.561E-07
  5104.000   3.695E-07
  5106.000   3.836E-07
  5108.000   3.987E-07
  5110.000   4.151E-07
  5112.000   4.324E-07
  5114.000   4.506E-07
  5116.000   4.700E-07
  5118.000   4.910E-07
  5120.000   5.138E-07
  5122.000   5.385E-07
  5124.000   5.647E-07
  5126.000   5.925E-07
  5128.000   6.222E-07
  5130.000   6.539E-07
  5132.000   6.872E-07
  5134.000   7.221E-07
  5136.000   7.592E-07
  5138.000   7.989E-07
  5140.000   8.418E-07
  5142.000   8.869E-07
  5144.000   9.340E-07
  5146.000   9.844E-07
  5148.000   1.039E-06
  5150.000   1.100E-06
  5152.000   1.168E-06
  5154.000   1.241E-06
  5156.000   1.318E-06
  5158.000   1.401E-06
  5160.000   1.487E-06
  5162.000   1.575E-06
  5164.000   1.667E-06
  5166.000   1.764E-06
  5168.000   1.867E-06
  5170.000   1.981E-06
  5172.000   2.105E-06
  5174.000   2.239E-06
  5176.000   2.381E-06
  5178.000   2.527E-06
  5180.000   2.675E-06
  5182.000   2.825E-06
  5184.000   2.977E-06
  5186.000   3.134E-06
  5188.000   3.297E-06
  5190.000   3.468E-06
  5192.000   3.649E-06
  5194.000   3.838E-06
  5196.000   4.033E-06
  5198.000   4.234E-06
  5200.000   4.439E-06
  5202.000   4.649E-06
  5204.000   4.864E-06
  5206.000   5.083E-06
  5208.000   5.307E-06
  5210.000   5.534E-06
  5212.000   5.766E-06
  5214.000   6.002E-06
  5216.000   6.241E-06
  5218.000   6.483E-06
  5220.000   6.724E-06
  5222.000   6.971E-06
  5224.000   7.222E-06
  5226.000   7.473E-06
  5228.000   7.716E-06
  5230.000   7.946E-06
  5232.000   8.161E-06
  5234.000   8.366E-06
  5236.000   8.562E-06
  5238.000   8.749E-06
  5240.000   8.927E-06
  5242.000   9.098E-06
  5244.000   9.261E-06
  5246.000   9.414E-06
  5248.000   9.555E-06
  5250.000   9.682E-06
  5252.000   9.790E-06
  5254.000   9.882E-06
  5256.000   9.963E-06
  5258.000   1.004E-05
  5260.000   1.011E-05
  5262.000   1.018E-05
  5264.000   1.025E-05
  5266.000   1.032E-05
  5268.000   1.037E-05
  5270.000   1.041E-05
  5272.000   1.043E-05
  5274.000   1.043E-05
  5276.000   1.042E-05
  5278.000   1.041E-05
  5280.000   1.041E-05
  5282.000   1.040E-05
  5284.000   1.039E-05
  5286.000   1.038E-05
  5288.000   1.038E-05
  5290.000   1.038E-05
  5292.000   1.040E-05
  5294.000   1.042E-05
  5296.000   1.045E-05
  5298.000   1.050E-05
  5300.000   1.056E-05
  5302.000   1.065E-05
  5304.000   1.076E-05
  5306.000   1.089E-05
  5308.000   1.102E-05
  5310.000   1.116E-05
  5312.000   1.129E-05
  5314.000   1.144E-05
  5316.000   1.158E-05
  5318.000   1.173E-05
  5320.000   1.187E-05
  5322.000   1.201E-05
  5324.000   1.215E-05
  5326.000   1.228E-05
  5328.000   1.242E-05
  5330.000   1.255E-05
  5332.000   1.267E-05
  5334.000   1.279E-05
  5336.000   1.290E-05
  5338.000   1.302E-05
  5340.000   1.314E-05
  5342.000   1.326E-05
  5344.000   1.339E-05
  5346.000   1.352E-05
  5348.000   1.365E-05
  5350.000   1.377E-05
  5352.000   1.387E-05
  5354.000   1.397E-05
  5356.000   1.407E-05
  5358.000   1.415E-05
  5360.000   1.424E-05
  5362.000   1.432E-05
  5364.000   1.441E-05
  5366.000   1.448E-05
  5368.000   1.455E-05
  5370.000   1.461E-05
  5372.000   1.465E-05
  5374.000   1.468E-05
  5376.000   1.469E-05
  5378.000   1.471E-05
  5380.000   1.473E-05
  5382.000   1.475E-05
  5384.000   1.477E-05
  5386.000   1.479E-05
  5388.000   1.480E-05
  5390.000   1.481E-05
  5392.000   1.482E-05
  5394.000   1.483E-05
  5396.000   1.483E-05
  5398.000   1.482E-05
  5400.000   1.479E-05
  5402.000   1.473E-05
  5404.000   1.465E-05
  5406.000   1.456E-05
  5408.000   1.445E-05
  5410.000   1.433E-05
  5412.000   1.420E-05
  5414.000   1.406E-05
  5416.000   1.390E-05
  5418.000   1.372E-05
  5420.000   1.352E-05
  5422.000   1.329E-05
  5424.000   1.304E-05
  5426.000   1.276E-05
  5428.000   1.248E-05
  5430.000   1.219E-05
  5432.000   1.189E-05
  5434.000   1.159E-05
  5436.000   1.127E-05
  5438.000   1.095E-05
  5440.000   1.063E-05
  5442.000   1.030E-05
  5444.000   9.971E-06
  5446.000   9.637E-06
  5448.000   9.300E-06
  5450.000   8.963E-06
  5452.000   8.622E-06
  5454.000   8.276E-06
  5456.000   7.930E-06
  5458.000   7.589E-06
  5460.000   7.258E-06
  5462.000   6.938E-06
  5464.000   6.626E-06
  5466.000   6.320E-06
  5468.000   6.019E-06
  5470.000   5.722E-06
  5472.000   5.425E-06
  5474.000   5.130E-06
  5476.000   4.841E-06
  5478.000   4.565E-06
  5480.000   4.308E-06
  5482.000   4.071E-06
  5484.000   3.850E-06
  5486.000   3.644E-06
  5488.000   3.449E-06
  5490.000   3.263E-06
  5492.000   3.087E-06
  5494.000   2.923E-06
  5496.000   2.769E-06
  5498.000   2.622E-06
  5500.000   2.482E-06
  5502.000   2.347E-06
  5504.000   2.220E-06
  5506.000   2.100E-06
  5508.000   1.987E-06
  5510.000   1.881E-06
  5512.000   1.784E-06
  5514.000   1.696E-06
  5516.000   1.614E-06
  5518.000   1.537E-06
  5520.000   1.461E-06
  5522.000   1.389E-06
  5524.000   1.319E-06
  5526.000   1.254E-06
  5528.000   1.192E-06
  5530.000   1.135E-06
  5532.000   1.082E-06
  5534.000   1.034E-06
  5536.000   9.890E-07
  5538.000   9.471E-07
  5540.000   9.068E-07
  5542.000   8.684E-07
  5544.000   8.325E-07
  5546.000   7.988E-07
  5548.000   7.673E-07
  5550.000   7.376E-07
  5552.000   7.103E-07
  5554.000   6.855E-07
  5556.000   6.624E-07
  5558.000   6.404E-07
  5560.000   6.188E-07
  5562.000   5.974E-07
  5564.000   5.768E-07
  5566.000   5.570E-07
  5568.000   5.381E-07
  5570.000   5.201E-07
  5572.000   5.032E-07
  5574.000   4.874E-07
  5576.000   4.724E-07
  5578.000   4.579E-07
  5580.000   4.435E-07
  5582.000   4.292E-07
  5584.000   4.152E-07
  5586.000   4.016E-07
  5588.000   3.886E-07
  5590.000   3.764E-07
  5592.000   3.651E-07
  5594.000   3.545E-07
  5596.000   3.445E-07
  5598.000   3.350E-07
  5600.000   3.257E-07
  5602.000   3.168E-07
  5604.000   3.082E-07
  5606.000   3.001E-07
  5608.000   2.922E-07
  5610.000   2.846E-07
  5612.000   2.773E-07
  5614.000   2.704E-07
  5616.000   2.637E-07
  5618.000   2.573E-07
  5620.000   2.510E-07
  5622.000   2.449E-07
  5624.000   2.390E-07
  5626.000   2.333E-07
  5628.000   2.277E-07
  5630.000   2.222E-07
  5632.000   2.167E-07
  5634.000   2.112E-07
  5636.000   2.058E-07
  5638.000   2.005E-07
  5640.000   1.954E-07
  5642.000   1.904E-07
  5644.000   1.855E-07
  5646.000   1.807E-07
  5648.000   1.761E-07
  5650.000   1.715E-07
  5652.000   1.671E-07
  5654.000   1.628E-07
  5656.000   1.587E-07
  5658.000   1.546E-07
  5660.000   1.507E-07
  5662.000   1.469E-07
  5664.000   1.433E-07
  5666.000   1.398E-07
  5668.000   1.364E-07
  5670.000   1.331E-07
  5672.000   1.298E-07
  5674.000   1.267E-07
  5676.000   1.237E-07
  5678.000   1.207E-07
  5680.000   1.178E-07
  5682.000   1.150E-07
  5684.000   1.122E-07
  5686.000   1.095E-07
  5688.000   1.069E-07
  5690.000   1.043E-07
  5692.000   1.018E-07
  5694.000   9.928E-08
  5696.000   9.686E-08
  5698.000   9.450E-08
  5700.000   9.221E-08
  5702.000   9.000E-08
  5704.000   8.786E-08
  5706.000   8.579E-08
  5708.000   8.378E-08
  5710.000   8.181E-08
  5712.000   7.989E-08
  5714.000   7.804E-08
  5716.000   7.623E-08
  5718.000   7.447E-08
  5720.000   7.273E-08
  5722.000   7.103E-08
  5724.000   6.937E-08
  5726.000   6.774E-08
  5728.000   6.616E-08
  5730.000   6.463E-08
  5732.000   6.316E-08
  5734.000   6.174E-08
  5736.000   6.037E-08
  5738.000   5.903E-08
  5740.000   5.772E-08
  5742.000   5.645E-08
  5744.000   5.523E-08
  5746.000   5.404E-08
  5748.000   5.286E-08
  5750.000   5.167E-08
  5752.000   5.047E-08
  5754.000   4.925E-08
  5756.000   4.805E-08
  5758.000   4.688E-08
  5760.000   4.576E-08
  5762.000   4.469E-08
  5764.000   4.367E-08
  5766.000   4.267E-08
  5768.000   4.170E-08
  5770.000   4.074E-08
  5772.000   3.980E-08
  5774.000   3.887E-08
  5776.000   3.796E-08
  5778.000   3.708E-08
  5780.000   3.621E-08
  5782.000   3.537E-08
  5784.000   3.455E-08
  5786.000   3.375E-08
  5788.000   3.297E-08
  5790.000   3.221E-08
  5792.000   3.149E-08
  5794.000   3.080E-08
  5796.000   3.012E-08
  5798.000   2.945E-08
  5800.000   2.878E-08
  5802.000   2.811E-08
  5804.000   2.743E-08
  5806.000   2.675E-08
  5808.000   2.610E-08
  5810.000   2.548E-08
  5812.000   2.491E-08
  5814.000   2.436E-08
  5816.000   2.383E-08
  5818.000   2.331E-08
  5820.000   2.279E-08
  5822.000   2.227E-08
  5824.000   2.175E-08
  5826.000   2.123E-08
  5828.000   2.073E-08
  5830.000   2.024E-08
  5832.000   1.976E-08
  5834.000   1.930E-08
  5836.000   1.884E-08
  5838.000   1.840E-08
  5840.000   1.797E-08
  5842.000   1.755E-08
  5844.000   1.714E-08
  5846.000   1.674E-08
  5848.000   1.635E-08
  5850.000   1.597E-08
  5852.000   1.561E-08
  5854.000   1.525E-08
  5856.000   1.490E-08
  5858.000   1.456E-08
  5860.000   1.423E-08
  5862.000   1.391E-08
  5864.000   1.360E-08
  5866.000   1.330E-08
  5868.000   1.301E-08
  5870.000   1.273E-08
  5872.000   1.246E-08
  5874.000   1.220E-08
  5876.000   1.196E-08
  5878.000   1.172E-08
  5880.000   1.149E-08
  5882.000   1.126E-08
  5884.000   1.103E-08
  5886.000   1.082E-08
  5888.000   1.061E-08
  5890.000   1.040E-08
  5892.000   1.020E-08
  5894.000   1.001E-08
  5896.000   9.829E-09
  5898.000   9.649E-09
  5900.000   9.470E-09
  5902.000   9.293E-09
  5904.000   9.118E-09
  5906.000   8.947E-09
  5908.000   8.780E-09
  5910.000   8.616E-09
  5912.000   8.456E-09
  5914.000   8.299E-09
  5916.000   8.146E-09
  5918.000   7.996E-09
  5920.000   7.849E-09
  5922.000   7.705E-09
  5924.000   7.564E-09
  5926.000   7.427E-09
  5928.000   7.292E-09
  5930.000   7.162E-09
  5932.000   7.034E-09
  5934.000   6.911E-09
  5936.000   6.790E-09
  5938.000   6.673E-09
  5940.000   6.557E-09
  5942.000   6.444E-09
  5944.000   6.334E-09
  5946.000   6.226E-09
  5948.000   6.122E-09
  5950.000   6.019E-09
  5952.000   5.920E-09
  5954.000   5.823E-09
  5956.000   5.730E-09
  5958.000   5.638E-09
  5960.000   5.550E-09
  5962.000   5.465E-09
  5964.000   5.382E-09
  5966.000   5.303E-09
  5968.000   5.225E-09
  5970.000   5.148E-09
  5972.000   5.071E-09
  5974.000   4.996E-09
  5976.000   4.922E-09
  5978.000   4.851E-09
  5980.000   4.782E-09
  5982.000   4.717E-09
  5984.000   4.655E-09
  5986.000   4.596E-09
  5988.000   4.538E-09
  5990.000   4.481E-09
  5992.000   4.425E-09
  5994.000   4.370E-09
  5996.000   4.316E-09
  5998.000   4.264E-09
  6000.000   4.214E-09
  6002.000   4.165E-09
  6004.000   4.118E-09
  6006.000   4.073E-09
  6008.000   4.029E-09
  6010.000   3.986E-09
  6012.000   3.945E-09
  6014.000   3.905E-09
  6016.000   3.866E-09
  6018.000   3.828E-09
  6020.000   3.790E-09
  6022.000   3.754E-09
  6024.000   3.718E-09
  6026.000   3.683E-09
  6028.000   3.649E-09
  6030.000   3.615E-09
  6032.000   3.582E-09
  6034.000   3.550E-09
  6036.000   3.519E-09
  6038.000   3.489E-09
  6040.000   3.459E-09
  6042.000   3.430E-09
  6044.000   3.401E-09
  6046.000   3.373E-09
  6048.000   3.346E-09
  6050.000   3.319E-09
  6052.000   3.292E-09
  6054.000   3.266E-09
  6056.000   3.240E-09
  6058.000   3.214E-09
  6060.000   3.189E-09
  6062.000   3.164E-09
  6064.000   3.140E-09
  6066.000   3.116E-09
  6068.000   3.092E-09
  6070.000   3.068E-09
  6072.000   3.045E-09
  6074.000   3.021E-09
  6076.000   2.998E-09
  6078.000   2.974E-09
  6080.000   2.950E-09
  6082.000   2.925E-09
  6084.000   2.900E-09
  6086.000   2.875E-09
  6088.000   2.849E-09
  6090.000   2.825E-09
  6092.000   2.801E-09
  6094.000   2.778E-09
  6096.000   2.756E-09
  6098.000   2.733E-09
  6100.000   2.710E-09
  6102.000   2.687E-09
  6104.000   2.664E-09
  6106.000   2.641E-09
  6108.000   2.619E-09
  6110.000   2.597E-09
  6112.000   2.576E-09
  6114.000   2.556E-09
  6116.000   2.537E-09
  6118.000   2.519E-09
  6120.000   2.501E-09
  6122.000   2.483E-09
  6124.000   2.466E-09
  6126.000   2.450E-09
  6128.000   2.434E-09
  6130.000   2.419E-09
  6132.000   2.405E-09
  6134.000   2.391E-09
  6136.000   2.377E-09
  6138.000   2.365E-09
  6140.000   2.353E-09
  6142.000   2.341E-09
  6144.000   2.331E-09
  6146.000   2.321E-09
  6148.000   2.311E-09
  6150.000   2.302E-09
  6152.000   2.293E-09
  6154.000   2.285E-09
  6156.000   2.278E-09
  6158.000   2.271E-09
  6160.000   2.265E-09
  6162.000   2.259E-09
  6164.000   2.254E-09
  6166.000   2.250E-09
  6168.000   2.247E-09
  6170.000   2.244E-09
  6172.000   2.242E-09
  6174.000   2.240E-09
  6176.000   2.239E-09
  6178.000   2.240E-09
  6180.000   2.241E-09
  6182.000   2.244E-09
  6184.000   2.248E-09
  6186.000   2.254E-09
  6188.000   2.261E-09
  6190.000   2.270E-09
  6192.000   2.282E-09
  6194.000   2.294E-09
  6196.000   2.308E-09
  6198.000   2.323E-09
  6200.000   2.337E-09
  6202.000   2.352E-09
  6204.000   2.365E-09
  6206.000   2.377E-09
  6208.000   2.389E-09
  6210.000   2.400E-09
  6212.000   2.413E-09
  6214.000   2.426E-09
  6216.000   2.440E-09
  6218.000   2.454E-09
  6220.000   2.467E-09
  6222.000   2.479E-09
  6224.000   2.488E-09
  6226.000   2.494E-09
  6228.000   2.497E-09
  6230.000   2.496E-09
  6232.000   2.491E-09
  6234.000   2.482E-09
  6236.000   2.470E-09
  6238.000   2.456E-09
  6240.000   2.440E-09
  6242.000   2.421E-09
  6244.000   2.402E-09
  6246.000   2.381E-09
  6248.000   2.360E-09
  6250.000   2.338E-09
  6252.000   2.315E-09
  6254.000   2.291E-09
  6256.000   2.266E-09
  6258.000   2.240E-09
  6260.000   2.214E-09
  6262.000   2.190E-09
  6264.000   2.169E-09
  6266.000   2.151E-09
  6268.000   2.136E-09
  6270.000   2.125E-09
  6272.000   2.117E-09
  6274.000   2.111E-09
  6276.000   2.107E-09
  6278.000   2.105E-09
  6280.000   2.104E-09
  6282.000   2.103E-09
  6284.000   2.102E-09
  6286.000   2.103E-09
  6288.000   2.103E-09
  6290.000   2.104E-09
  6292.000   2.105E-09
  6294.000   2.106E-09
  6296.000   2.109E-09
  6298.000   2.112E-09
  6300.000   2.117E-09
  6302.000   2.123E-09
  6304.000   2.131E-09
  6306.000   2.140E-09
  6308.000   2.151E-09
  6310.000   2.165E-09
  6312.000   2.180E-09
  6314.000   2.197E-09
  6316.000   2.216E-09
  6318.000   2.236E-09
  6320.000   2.257E-09
  6322.000   2.277E-09
  6324.000   2.297E-09
  6326.000   2.317E-09
  6328.000   2.336E-09
  6330.000   2.356E-09
  6332.000   2.376E-09
  6334.000   2.398E-09
  6336.000   2.420E-09
  6338.000   2.442E-09
  6340.000   2.464E-09
  6342.000   2.484E-09
  6344.000   2.503E-09
  6346.000   2.518E-09
  6348.000   2.529E-09
  6350.000   2.536E-09
  6352.000   2.540E-09
  6354.000   2.539E-09
  6356.000   2.535E-09
  6358.000   2.528E-09
  6360.000   2.518E-09
  6362.000   2.507E-09
  6364.000   2.494E-09
  6366.000   2.480E-09
  6368.000   2.465E-09
  6370.000   2.450E-09
  6372.000   2.433E-09
  6374.000   2.416E-09
  6376.000   2.397E-09
  6378.000   2.378E-09
  6380.000   2.360E-09
  6382.000   2.343E-09
  6384.000   2.329E-09
  6386.000   2.318E-09
  6388.000   2.310E-09
  6390.000   2.307E-09
  6392.000   2.306E-09
  6394.000   2.309E-09
  6396.000   2.315E-09
  6398.000   2.322E-09
  6400.000   2.330E-09
  6402.000   2.340E-09
  6404.000   2.350E-09
  6406.000   2.361E-09
  6408.000   2.372E-09
  6410.000   2.384E-09
  6412.000   2.396E-09
  6414.000   2.409E-09
  6416.000   2.422E-09
  6418.000   2.435E-09
  6420.000   2.449E-09
  6422.000   2.463E-09
  6424.000   2.477E-09
  6426.000   2.491E-09
  6428.000   2.505E-09
  6430.000   2.521E-09
  6432.000   2.537E-09
  6434.000   2.554E-09
  6436.000   2.571E-09
  6438.000   2.589E-09
  6440.000   2.608E-09
  6442.000   2.628E-09
  6444.000   2.648E-09
  6446.000   2.670E-09
  6448.000   2.692E-09
  6450.000   2.714E-09
  6452.000   2.737E-09
  6454.000   2.760E-09
  6456.000   2.784E-09
  6458.000   2.808E-09
  6460.000   2.834E-09
  6462.000   2.860E-09
  6464.000   2.887E-09
  6466.000   2.914E-09
  6468.000   2.943E-09
  6470.000   2.973E-09
  6472.000   3.004E-09
  6474.000   3.036E-09
  6476.000   3.068E-09
  6478.000   3.102E-09
  6480.000   3.137E-09
  6482.000   3.173E-09
  6484.000   3.211E-09
  6486.000   3.249E-09
  6488.000   3.289E-09
  6490.000   3.330E-09
  6492.000   3.371E-09
  6494.000   3.414E-09
  6496.000   3.458E-09
  6498.000   3.503E-09
  6500.000   3.551E-09
  6502.000   3.600E-09
  6504.000   3.651E-09
  6506.000   3.704E-09
  6508.000   3.758E-09
  6510.000   3.815E-09
  6512.000   3.874E-09
  6514.000   3.934E-09
  6516.000   3.997E-09
  6518.000   4.061E-09
  6520.000   4.129E-09
  6522.000   4.198E-09
  6524.000   4.270E-09
  6526.000   4.344E-09
  6528.000   4.421E-09
  6530.000   4.500E-09
  6532.000   4.582E-09
  6534.000   4.665E-09
  6536.000   4.751E-09
  6538.000   4.843E-09
  6540.000   4.941E-09
  6542.000   5.046E-09
  6544.000   5.157E-09
  6546.000   5.274E-09
  6548.000   5.397E-09
  6550.000   5.528E-09
  6552.000   5.667E-09
  6554.000   5.813E-09
  6556.000   5.966E-09
  6558.000   6.126E-09
  6560.000   6.291E-09
  6562.000   6.461E-09
  6564.000   6.636E-09
  6566.000   6.818E-09
  6568.000   7.008E-09
  6570.000   7.209E-09
  6572.000   7.420E-09
  6574.000   7.640E-09
  6576.000   7.869E-09
  6578.000   8.109E-09
  6580.000   8.362E-09
  6582.000   8.626E-09
  6584.000   8.898E-09
  6586.000   9.183E-09
  6588.000   9.485E-09
  6590.000   9.808E-09
  6592.000   1.015E-08
  6594.000   1.051E-08
  6596.000   1.089E-08
  6598.000   1.129E-08
  6600.000   1.170E-08
  6602.000   1.213E-08
  6604.000   1.257E-08
  6606.000   1.304E-08
  6608.000   1.352E-08
  6610.000   1.402E-08
  6612.000   1.453E-08
  6614.000   1.507E-08
  6616.000   1.562E-08
  6618.000   1.619E-08
  6620.000   1.678E-08
  6622.000   1.739E-08
  6624.000   1.802E-08
  6626.000   1.867E-08
  6628.000   1.933E-08
  6630.000   1.999E-08
  6632.000   2.065E-08
  6634.000   2.130E-08
  6636.000   2.196E-08
  6638.000   2.266E-08
  6640.000   2.342E-08
  6642.000   2.424E-08
  6644.000   2.512E-08
  6646.000   2.603E-08
  6648.000   2.698E-08
  6650.000   2.794E-08
  6652.000   2.892E-08
  6654.000   2.991E-08
  6656.000   3.093E-08
  6658.000   3.200E-08
  6660.000   3.313E-08
  6662.000   3.430E-08
  6664.000   3.551E-08
  6666.000   3.677E-08
  6668.000   3.811E-08
  6670.000   3.956E-08
  6672.000   4.109E-08
  6674.000   4.270E-08
  6676.000   4.440E-08
  6678.000   4.621E-08
  6680.000   4.814E-08
  6682.000   5.016E-08
  6684.000   5.225E-08
  6686.000   5.448E-08
  6688.000   5.687E-08
  6690.000   5.947E-08
  6692.000   6.228E-08
  6694.000   6.528E-08
  6696.000   6.845E-08
  6698.000   7.181E-08
  6700.000   7.534E-08
  6702.000   7.901E-08
  6704.000   8.283E-08
  6706.000   8.684E-08
  6708.000   9.110E-08
  6710.000   9.565E-08
  6712.000   1.004E-07
  6714.000   1.055E-07
  6716.000   1.108E-07
  6718.000   1.164E-07
  6720.000   1.225E-07
  6722.000   1.291E-07
  6724.000   1.362E-07
  6726.000   1.436E-07
  6728.000   1.513E-07
  6730.000   1.590E-07
  6732.000   1.667E-07
  6734.000   1.746E-07
  6736.000   1.826E-07
  6738.000   1.909E-07
  6740.000   1.995E-07
  6742.000   2.084E-07
  6744.000   2.175E-07
  6746.000   2.268E-07
  6748.000   2.364E-07
  6750.000   2.461E-07
  6752.000   2.560E-07
  6754.000   2.659E-07
  6756.000   2.761E-07
  6758.000   2.866E-07
  6760.000   2.975E-07
  6762.000   3.091E-07
  6764.000   3.212E-07
  6766.000   3.337E-07
  6768.000   3.461E-07
  6770.000   3.582E-07
  6772.000   3.701E-07
  6774.000   3.822E-07
  6776.000   3.940E-07
  6778.000   4.053E-07
  6780.000   4.159E-07
  6782.000   4.257E-07
  6784.000   4.350E-07
  6786.000   4.437E-07
  6788.000   4.519E-07
  6790.000   4.597E-07
  6792.000   4.670E-07
  6794.000   4.739E-07
  6796.000   4.803E-07
  6798.000   4.862E-07
  6800.000   4.913E-07
  6802.000   4.957E-07
  6804.000   4.994E-07
  6806.000   5.025E-07
  6808.000   5.051E-07
  6810.000   5.075E-07
  6812.000   5.096E-07
  6814.000   5.114E-07
  6816.000   5.128E-07
  6818.000   5.136E-07
  6820.000   5.137E-07
  6822.000   5.128E-07
  6824.000   5.109E-07
  6826.000   5.086E-07
  6828.000   5.063E-07
  6830.000   5.045E-07
  6832.000   5.029E-07
  6834.000   5.013E-07
  6836.000   5.000E-07
  6838.000   4.991E-07
  6840.000   4.989E-07
  6842.000   4.994E-07
  6844.000   5.005E-07
  6846.000   5.020E-07
  6848.000   5.041E-07
  6850.000   5.065E-07
  6852.000   5.092E-07
  6854.000   5.123E-07
  6856.000   5.158E-07
  6858.000   5.198E-07
  6860.000   5.245E-07
  6862.000   5.299E-07
  6864.000   5.359E-07
  6866.000   5.425E-07
  6868.000   5.493E-07
  6870.000   5.563E-07
  6872.000   5.634E-07
  6874.000   5.706E-07
  6876.000   5.781E-07
  6878.000   5.861E-07
  6880.000   5.948E-07
  6882.000   6.043E-07
  6884.000   6.146E-07
  6886.000   6.253E-07
  6888.000   6.360E-07
  6890.000   6.462E-07
  6892.000   6.560E-07
  6894.000   6.656E-07
  6896.000   6.750E-07
  6898.000   6.842E-07
  6900.000   6.933E-07
  6902.000   7.022E-07
  6904.000   7.110E-07
  6906.000   7.196E-07
  6908.000   7.279E-07
  6910.000   7.357E-07
  6912.000   7.433E-07
  6914.000   7.506E-07
  6916.000   7.575E-07
  6918.000   7.639E-07
  6920.000   7.696E-07
  6922.000   7.745E-07
  6924.000   7.786E-07
  6926.000   7.822E-07
  6928.000   7.855E-07
  6930.000   7.888E-07
  6932.000   7.922E-07
  6934.000   7.957E-07
  6936.000   7.989E-07
  6938.000   8.014E-07
  6940.000   8.028E-07
  6942.000   8.029E-07
  6944.000   8.019E-07
  6946.000   8.002E-07
  6948.000   7.981E-07
  6950.000   7.961E-07
  6952.000   7.943E-07
  6954.000   7.926E-07
  6956.000   7.905E-07
  6958.000   7.879E-07
  6960.000   7.844E-07
  6962.000   7.797E-07
  6964.000   7.741E-07
  6966.000   7.680E-07
  6968.000   7.617E-07
  6970.000   7.557E-07
  6972.000   7.500E-07
  6974.000   7.443E-07
  6976.000   7.386E-07
  6978.000   7.330E-07
  6980.000   7.273E-07
  6982.000   7.215E-07
  6984.000   7.154E-07
  6986.000   7.095E-07
  6988.000   7.041E-07
  6990.000   6.994E-07
  6992.000   6.955E-07
  6994.000   6.922E-07
  6996.000   6.895E-07
  6998.000   6.873E-07
  7000.000   6.857E-07
  7002.000   6.843E-07
  7004.000   6.832E-07
  7006.000   6.829E-07
  7008.000   6.837E-07
  7010.000   6.861E-07
  7012.000   6.901E-07
  7014.000   6.953E-07
  7016.000   7.019E-07
  7018.000   7.099E-07
  7020.000   7.195E-07
  7022.000   7.306E-07
  7024.000   7.430E-07
  7026.000   7.570E-07
  7028.000   7.726E-07
  7030.000   7.902E-07
  7032.000   8.093E-07
  7034.000   8.299E-07
  7036.000   8.524E-07
  7038.000   8.774E-07
  7040.000   9.056E-07
  7042.000   9.373E-07
  7044.000   9.721E-07
  7046.000   1.009E-06
  7048.000   1.049E-06
  7050.000   1.089E-06
  7052.000   1.130E-06
  7054.000   1.172E-06
  7056.000   1.215E-06
  7058.000   1.263E-06
  7060.000   1.316E-06
  7062.000   1.376E-06
  7064.000   1.442E-06
  7066.000   1.511E-06
  7068.000   1.584E-06
  7070.000   1.658E-06
  7072.000   1.734E-06
  7074.000   1.811E-06
  7076.000   1.891E-06
  7078.000   1.975E-06
  7080.000   2.066E-06
  7082.000   2.164E-06
  7084.000   2.269E-06
  7086.000   2.377E-06
  7088.000   2.489E-06
  7090.000   2.600E-06
  7092.000   2.710E-06
  7094.000   2.821E-06
  7096.000   2.934E-06
  7098.000   3.051E-06
  7100.000   3.174E-06
  7102.000   3.303E-06
  7104.000   3.437E-06
  7106.000   3.576E-06
  7108.000   3.720E-06
  7110.000   3.868E-06
  7112.000   4.023E-06
  7114.000   4.187E-06
  7116.000   4.353E-06
  7118.000   4.518E-06
  7120.000   4.677E-06
  7122.000   4.828E-06
  7124.000   4.974E-06
  7126.000   5.118E-06
  7128.000   5.265E-06
  7130.000   5.419E-06
  7132.000   5.585E-06
  7134.000   5.762E-06
  7136.000   5.939E-06
  7138.000   6.110E-06
  7140.000   6.266E-06
  7142.000   6.405E-06
  7144.000   6.531E-06
  7146.000   6.649E-06
  7148.000   6.763E-06
  7150.000   6.877E-06
  7152.000   6.992E-06
  7154.000   7.106E-06
  7156.000   7.216E-06
  7158.000   7.318E-06
  7160.000   7.411E-06
  7162.000   7.493E-06
  7164.000   7.566E-06
  7166.000   7.631E-06
  7168.000   7.688E-06
  7170.000   7.739E-06
  7172.000   7.780E-06
  7174.000   7.810E-06
  7176.000   7.835E-06
  7178.000   7.858E-06
  7180.000   7.883E-06
  7182.000   7.911E-06
  7184.000   7.940E-06
  7186.000   7.968E-06
  7188.000   7.995E-06
  7190.000   8.018E-06
  7192.000   8.036E-06
  7194.000   8.049E-06
  7196.000   8.060E-06
  7198.000   8.076E-06
  7200.000   8.100E-06
  7202.000   8.133E-06
  7204.000   8.174E-06
  7206.000   8.219E-06
  7208.000   8.265E-06
  7210.000   8.310E-06
  7212.000   8.356E-06
  7214.000   8.405E-06
  7216.000   8.453E-06
  7218.000   8.499E-06
  7220.000   8.540E-06
  7222.000   8.575E-06
  7224.000   8.606E-06
  7226.000   8.633E-06
  7228.000   8.660E-06
  7230.000   8.686E-06
  7232.000   8.713E-06
  7234.000   8.739E-06
  7236.000   8.765E-06
  7238.000   8.790E-06
  7240.000   8.814E-06
  7242.000   8.839E-06
  7244.000   8.862E-06
  7246.000   8.886E-06
  7248.000   8.910E-06
  7250.000   8.933E-06
  7252.000   8.954E-06
  7254.000   8.972E-06
  7256.000   8.992E-06
  7258.000   9.017E-06
  7260.000   9.052E-06
  7262.000   9.096E-06
  7264.000   9.148E-06
  7266.000   9.207E-06
  7268.000   9.272E-06
  7270.000   9.343E-06
  7272.000   9.420E-06
  7274.000   9.504E-06
  7276.000   9.594E-06
  7278.000   9.689E-06
  7280.000   9.791E-06
  7282.000   9.900E-06
  7284.000   1.002E-05
  7286.000   1.014E-05
  7288.000   1.026E-05
  7290.000   1.039E-05
  7292.000   1.052E-05
  7294.000   1.066E-05
  7296.000   1.079E-05
  7298.000   1.092E-05
  7300.000   1.103E-05
  7302.000   1.112E-05
  7304.000   1.120E-05
  7306.000   1.127E-05
  7308.000   1.132E-05
  7310.000   1.136E-05
  7312.000   1.139E-05
  7314.000   1.142E-05
  7316.000   1.143E-05
  7318.000   1.142E-05
  7320.000   1.138E-05
  7322.000   1.130E-05
  7324.000   1.120E-05
  7326.000   1.107E-05
  7328.000   1.092E-05
  7330.000   1.075E-05
  7332.000   1.056E-05
  7334.000   1.035E-05
  7336.000   1.012E-05
  7338.000   9.882E-06
  7340.000   9.642E-06
  7342.000   9.404E-06
  7344.000   9.161E-06
  7346.000   8.911E-06
  7348.000   8.652E-06
  7350.000   8.382E-06
  7352.000   8.096E-06
  7354.000   7.796E-06
  7356.000   7.488E-06
  7358.000   7.181E-06
  7360.000   6.880E-06
  7362.000   6.587E-06
  7364.000   6.295E-06
  7366.000   6.006E-06
  7368.000   5.719E-06
  7370.000   5.436E-06
  7372.000   5.152E-06
  7374.000   4.867E-06
  7376.000   4.586E-06
  7378.000   4.316E-06
  7380.000   4.060E-06
  7382.000   3.820E-06
  7384.000   3.591E-06
  7386.000   3.374E-06
  7388.000   3.169E-06
  7390.000   2.974E-06
  7392.000   2.792E-06
  7394.000   2.623E-06
  7396.000   2.464E-06
  7398.000   2.313E-06
  7400.000   2.169E-06
  7402.000   2.029E-06
  7404.000   1.897E-06
  7406.000   1.773E-06
  7408.000   1.655E-06
  7410.000   1.545E-06
  7412.000   1.443E-06
  7414.000   1.349E-06
  7416.000   1.262E-06
  7418.000   1.181E-06
  7420.000   1.105E-06
  7422.000   1.035E-06
  7424.000   9.719E-07
  7426.000   9.137E-07
  7428.000   8.598E-07
  7430.000   8.091E-07
  7432.000   7.622E-07
  7434.000   7.197E-07
  7436.000   6.809E-07
  7438.000   6.449E-07
  7440.000   6.108E-07
  7442.000   5.789E-07
  7444.000   5.498E-07
  7446.000   5.231E-07
  7448.000   4.983E-07
  7450.000   4.750E-07
  7452.000   4.535E-07
  7454.000   4.339E-07
  7456.000   4.161E-07
  7458.000   3.995E-07
  7460.000   3.837E-07
  7462.000   3.689E-07
  7464.000   3.553E-07
  7466.000   3.428E-07
  7468.000   3.311E-07
  7470.000   3.199E-07
  7472.000   3.095E-07
  7474.000   2.999E-07
  7476.000   2.910E-07
  7478.000   2.826E-07
  7480.000   2.745E-07
  7482.000   2.668E-07
  7484.000   2.595E-07
  7486.000   2.527E-07
  7488.000   2.462E-07
  7490.000   2.398E-07
  7492.000   2.338E-07
  7494.000   2.280E-07
  7496.000   2.226E-07
  7498.000   2.172E-07
  7500.000   2.120E-07
  7502.000   2.067E-07
  7504.000   2.016E-07
  7506.000   1.966E-07
  7508.000   1.918E-07
  7510.000   1.870E-07
  7512.000   1.824E-07
  7514.000   1.780E-07
  7516.000   1.737E-07
  7518.000   1.695E-07
  7520.000   1.654E-07
  7522.000   1.615E-07
  7524.000   1.578E-07
  7526.000   1.542E-07
  7528.000   1.507E-07
  7530.000   1.472E-07
  7532.000   1.437E-07
  7534.000   1.403E-07
  7536.000   1.369E-07
  7538.000   1.336E-07
  7540.000   1.305E-07
  7542.000   1.275E-07
  7544.000   1.246E-07
  7546.000   1.219E-07
  7548.000   1.193E-07
  7550.000   1.168E-07
  7552.000   1.143E-07
  7554.000   1.117E-07
  7556.000   1.092E-07
  7558.000   1.068E-07
  7560.000   1.044E-07
  7562.000   1.023E-07
  7564.000   1.002E-07
  7566.000   9.817E-08
  7568.000   9.625E-08
  7570.000   9.417E-08
  7572.000   9.234E-08
  7574.000   9.057E-08
  7576.000   8.872E-08
  7578.000   8.694E-08
  7580.000   8.524E-08
  7582.000   8.346E-08
  7584.000   8.186E-08
  7586.000   8.027E-08
  7588.000   7.850E-08
  7590.000   7.686E-08
  7592.000   7.523E-08
  7594.000   7.363E-08
  7596.000   7.213E-08
  7598.000   7.064E-08
  7600.000   6.917E-08
  7602.000   6.758E-08
  7604.000   6.621E-08
  7606.000   6.491E-08
  7608.000   6.350E-08
  7610.000   6.215E-08
  7612.000   6.080E-08
  7614.000   5.943E-08
  7616.000   5.817E-08
  7618.000   5.722E-08
  7620.000   5.593E-08
  7622.000   5.472E-08
  7624.000   5.363E-08
  7626.000   5.253E-08
  7628.000   5.141E-08
  7630.000   5.039E-08
  7632.000   4.905E-08
  7634.000   4.822E-08
  7636.000   4.712E-08
  7638.000   4.621E-08
  7640.000   4.519E-08
  7642.000   4.416E-08
  7644.000   4.332E-08
  7646.000   4.249E-08
  7648.000   4.183E-08
  7650.000   4.099E-08
  7652.000   4.035E-08
  7654.000   3.942E-08
  7656.000   3.863E-08
  7658.000   3.781E-08
  7660.000   3.718E-08
  7662.000   3.649E-08
  7664.000   3.583E-08
  7666.000   3.527E-08
  7668.000   3.456E-08
  7670.000   3.406E-08
  7672.000   3.342E-08
  7674.000   3.270E-08
  7676.000   3.203E-08
  7678.000   3.168E-08
  7680.000   3.136E-08
  7682.000   3.081E-08
  7684.000   3.036E-08
  7686.000   2.983E-08
  7688.000   2.949E-08
  7690.000   2.916E-08
  7692.000   2.891E-08
  7694.000   2.849E-08
  7696.000   2.818E-08
  7698.000   2.784E-08
  7700.000   2.731E-08
  7702.000   2.694E-08
  7704.000   2.652E-08
  7706.000   2.626E-08
  7708.000   2.584E-08
  7710.000   2.596E-08
  7712.000   2.590E-08
  7714.000   2.583E-08
  7716.000   2.557E-08
  7718.000   2.543E-08
  7720.000   2.531E-08
  7722.000   2.517E-08
  7724.000   2.500E-08
  7726.000   2.507E-08
  7728.000   2.486E-08
  7730.000   2.475E-08
  7732.000   2.489E-08
  7734.000   2.486E-08
  7736.000   2.496E-08
  7738.000   2.471E-08
  7740.000   2.477E-08
  7742.000   2.507E-08
  7744.000   2.514E-08
  7746.000   2.521E-08
  7748.000   2.526E-08
  7750.000   2.532E-08
  7752.000   2.563E-08
  7754.000   2.591E-08
  7756.000   2.614E-08
  7758.000   2.636E-08
  7760.000   2.662E-08
  7762.000   2.703E-08
  7764.000   2.720E-08
  7766.000   2.748E-08
  7768.000   2.796E-08
  7770.000   2.819E-08
  7772.000   2.862E-08
  7774.000   2.928E-08
  7776.000   2.978E-08
  7778.000   3.027E-08
  7780.000   3.074E-08
  7782.000   3.147E-08
  7784.000   3.205E-08
  7786.000   3.257E-08
  7788.000   3.345E-08
  7790.000   3.439E-08
  7792.000   3.522E-08
  7794.000   3.601E-08
  7796.000   3.688E-08
  7798.000   3.761E-08
  7800.000   3.846E-08
  7802.000   3.963E-08
  7804.000   4.100E-08
  7806.000   4.230E-08
  7808.000   4.344E-08
  7810.000   4.450E-08
  7812.000   4.624E-08
  7814.000   4.759E-08
  7816.000   4.926E-08
  7818.000   5.118E-08
  7820.000   5.289E-08
  7822.000   5.396E-08
  7824.000   5.618E-08
  7826.000   5.844E-08
  7828.000   6.004E-08
  7830.000   6.220E-08
  7832.000   6.458E-08
  7834.000   6.644E-08
  7836.000   6.848E-08
  7838.000   7.095E-08
  7840.000   7.396E-08
  7842.000   7.547E-08
  7844.000   7.752E-08
  7846.000   7.979E-08
  7848.000   8.267E-08
  7850.000   8.617E-08
  7852.000   8.963E-08
  7854.000   9.242E-08
  7856.000   9.488E-08
  7858.000   9.770E-08
  7860.000   1.016E-07
  7862.000   1.045E-07
  7864.000   1.086E-07
  7866.000   1.142E-07
  7868.000   1.181E-07
  7870.000   1.207E-07
  7872.000   1.242E-07
  7874.000   1.269E-07
  7876.000   1.298E-07
  7878.000   1.341E-07
  7880.000   1.390E-07
  7882.000   1.372E-07
  7884.000   1.372E-07
  7886.000   1.427E-07
  7888.000   1.445E-07
  7890.000   1.449E-07
  7892.000   1.448E-07
  7894.000   1.424E-07
  7896.000   1.433E-07
  7898.000   1.429E-07
  7900.000   1.414E-07
  7902.000   1.414E-07
  7904.000   1.393E-07
  7906.000   1.381E-07
  7908.000   1.366E-07
  7910.000   1.333E-07
  7912.000   1.326E-07
  7914.000   1.312E-07
  7916.000   1.293E-07
  7918.000   1.257E-07
  7920.000   1.218E-07
  7922.000   1.193E-07
  7924.000   1.161E-07
  7926.000   1.135E-07
  7928.000   1.108E-07
  7930.000   1.076E-07
  7932.000   1.039E-07
  7934.000   1.018E-07
  7936.000   9.862E-08
  7938.000   9.556E-08
  7940.000   9.254E-08
  7942.000   8.879E-08
  7944.000   8.682E-08
  7946.000   8.441E-08
  7948.000   8.221E-08
  7950.000   7.980E-08
  7952.000   7.690E-08
  7954.000   7.471E-08
  7956.000   7.274E-08
  7958.000   7.097E-08
  7960.000   6.900E-08
  7962.000   6.688E-08
  7964.000   6.497E-08
  7966.000   6.378E-08
  7968.000   6.222E-08
  7970.000   6.063E-08
  7972.000   5.903E-08
  7974.000   5.698E-08
  7976.000   5.616E-08
  7978.000   5.486E-08
  7980.000   5.346E-08
  7982.000   5.233E-08
  7984.000   5.074E-08
  7986.000   4.992E-08
  7988.000   4.863E-08
  7990.000   4.743E-08
  7992.000   4.616E-08
  7994.000   4.517E-08
  7996.000   4.456E-08
  7998.000   4.350E-08
  8000.000   4.263E-08
  8002.000   4.174E-08
  8004.000   4.093E-08
  8006.000   4.021E-08
  8008.000   3.928E-08
  8010.000   3.867E-08
  8012.000   3.792E-08
  8014.000   3.691E-08
  8016.000   3.643E-08
  8018.000   3.575E-08
  8020.000   3.488E-08
  8022.000   3.450E-08
  8024.000   3.386E-08
  8026.000   3.337E-08
  8028.000   3.287E-08
  8030.000   3.228E-08
  8032.000   3.164E-08
  8034.000   3.104E-08
  8036.000   3.061E-08
  8038.000   3.006E-08
  8040.000   2.981E-08
  8042.000   2.945E-08
  8044.000   2.906E-08
  8046.000   2.859E-08
  8048.000   2.827E-08
  8050.000   2.754E-08
  8052.000   2.717E-08
  8054.000   2.655E-08
  8056.000   2.630E-08
  8058.000   2.608E-08
  8060.000   2.586E-08
  8062.000   2.545E-08
  8064.000   2.510E-08
  8066.000   2.452E-08
  8068.000   2.416E-08
  8070.000   2.379E-08
  8072.000   2.350E-08
  8074.000   2.337E-08
  8076.000   2.317E-08
  8078.000   2.284E-08
  8080.000   2.248E-08
  8082.000   2.212E-08
  8084.000   2.172E-08
  8086.000   2.159E-08
  8088.000   2.134E-08
  8090.000   2.107E-08
  8092.000   2.075E-08
  8094.000   2.065E-08
  8096.000   2.030E-08
  8098.000   2.009E-08
  8100.000   1.968E-08
  8102.000   1.953E-08
  8104.000   1.936E-08
  8106.000   1.911E-08
  8108.000   1.900E-08
  8110.000   1.879E-08
  8112.000   1.835E-08
  8114.000   1.817E-08
  8116.000   1.794E-08
  8118.000   1.790E-08
  8120.000   1.761E-08
  8122.000   1.757E-08
  8124.000   1.753E-08
  8126.000   1.726E-08
  8128.000   1.706E-08
  8130.000   1.689E-08
  8132.000   1.677E-08
  8134.000   1.643E-08
  8136.000   1.646E-08
  8138.000   1.630E-08
  8140.000   1.638E-08
  8142.000   1.607E-08
  8144.000   1.607E-08
  8146.000   1.600E-08
  8148.000   1.576E-08
  8150.000   1.564E-08
  8152.000   1.564E-08
  8154.000   1.548E-08
  8156.000   1.550E-08
  8158.000   1.539E-08
  8160.000   1.515E-08
  8162.000   1.503E-08
  8164.000   1.504E-08
  8166.000   1.483E-08
  8168.000   1.478E-08
  8170.000   1.491E-08
  8172.000   1.479E-08
  8174.000   1.462E-08
  8176.000   1.456E-08
  8178.000   1.451E-08
  8180.000   1.446E-08
  8182.000   1.443E-08
  8184.000   1.426E-08
  8186.000   1.426E-08
  8188.000   1.442E-08
  8190.000   1.402E-08
  8192.000   1.417E-08
  8194.000   1.402E-08
  8196.000   1.387E-08
  8198.000   1.389E-08
  8200.000   1.394E-08
  8202.000   1.421E-08
  8204.000   1.406E-08
  8206.000   1.403E-08
  8208.000   1.385E-08
  8210.000   1.388E-08
  8212.000   1.385E-08
  8214.000   1.385E-08
  8216.000   1.403E-08
  8218.000   1.384E-08
  8220.000   1.411E-08
  8222.000   1.404E-08
  8224.000   1.399E-08
  8226.000   1.398E-08
  8228.000   1.400E-08
  8230.000   1.419E-08
  8232.000   1.420E-08
  8234.000   1.453E-08
  8236.000   1.470E-08
  8238.000   1.451E-08
  8240.000   1.464E-08
  8242.000   1.478E-08
  8244.000   1.465E-08
  8246.000   1.495E-08
  8248.000   1.493E-08
  8250.000   1.512E-08
  8252.000   1.544E-08
  8254.000   1.545E-08
  8256.000   1.542E-08
  8258.000   1.558E-08
  8260.000   1.571E-08
  8262.000   1.588E-08
  8264.000   1.609E-08
  8266.000   1.647E-08
  8268.000   1.656E-08
  8270.000   1.681E-08
  8272.000   1.686E-08
  8274.000   1.712E-08
  8276.000   1.726E-08
  8278.000   1.752E-08
  8280.000   1.808E-08
  8282.000   1.811E-08
  8284.000   1.835E-08
  8286.000   1.859E-08
  8288.000   1.886E-08
  8290.000   1.888E-08
  8292.000   1.900E-08
  8294.000   1.927E-08
  8296.000   1.954E-08
  8298.000   1.996E-08
  8300.000   1.999E-08
  8302.000   2.021E-08
  8304.000   2.030E-08
  8306.000   2.040E-08
  8308.000   2.045E-08
  8310.000   2.065E-08
  8312.000   2.093E-08
  8314.000   2.111E-08
  8316.000   2.095E-08
  8318.000   2.104E-08
  8320.000   2.109E-08
  8322.000   2.102E-08
  8324.000   2.113E-08
  8326.000   2.120E-08
  8328.000   2.118E-08
  8330.000   2.121E-08
  8332.000   2.125E-08
  8334.000   2.093E-08
  8336.000   2.108E-08
  8338.000   2.095E-08
  8340.000   2.073E-08
  8342.000   2.058E-08
  8344.000   2.043E-08
  8346.000   2.061E-08
  8348.000   2.050E-08
  8350.000   2.061E-08
  8352.000   2.045E-08
  8354.000   2.043E-08
  8356.000   2.041E-08
  8358.000   2.028E-08
  8360.000   2.037E-08
  8362.000   2.044E-08
  8364.000   2.053E-08
  8366.000   2.040E-08
  8368.000   2.039E-08
  8370.000   2.042E-08
  8372.000   2.043E-08
  8374.000   2.057E-08
  8376.000   2.080E-08
  8378.000   2.091E-08
  8380.000   2.111E-08
  8382.000   2.128E-08
  8384.000   2.124E-08
  8386.000   2.139E-08
  8388.000   2.177E-08
  8390.000   2.240E-08
  8392.000   2.252E-08
  8394.000   2.294E-08
  8396.000   2.331E-08
  8398.000   2.346E-08
  8400.000   2.370E-08
  8402.000   2.397E-08
  8404.000   2.417E-08
  8406.000   2.444E-08
  8408.000   2.477E-08
  8410.000   2.524E-08
  8412.000   2.534E-08
  8414.000   2.549E-08
  8416.000   2.594E-08
  8418.000   2.611E-08
  8420.000   2.635E-08
  8422.000   2.651E-08
  8424.000   2.689E-08
  8426.000   2.731E-08
  8428.000   2.727E-08
  8430.000   2.739E-08
  8432.000   2.774E-08
  8434.000   2.767E-08
  8436.000   2.811E-08
  8438.000   2.813E-08
  8440.000   2.822E-08
  8442.000   2.834E-08
  8444.000   2.809E-08
  8446.000   2.795E-08
  8448.000   2.803E-08
  8450.000   2.778E-08
  8452.000   2.757E-08
  8454.000   2.789E-08
  8456.000   2.769E-08
  8458.000   2.757E-08
  8460.000   2.739E-08
  8462.000   2.710E-08
  8464.000   2.688E-08
  8466.000   2.687E-08
  8468.000   2.674E-08
  8470.000   2.654E-08
  8472.000   2.629E-08
  8474.000   2.596E-08
  8476.000   2.551E-08
  8478.000   2.519E-08
  8480.000   2.514E-08
  8482.000   2.476E-08
  8484.000   2.452E-08
  8486.000   2.474E-08
  8488.000   2.412E-08
  8490.000   2.369E-08
  8492.000   2.335E-08
  8494.000   2.305E-08
  8496.000   2.279E-08
  8498.000   2.254E-08
  8500.000   2.229E-08
  8502.000   2.206E-08
  8504.000   2.184E-08
  8506.000   2.162E-08
  8508.000   2.140E-08
  8510.000   2.121E-08
  8512.000   2.102E-08
  8514.000   2.083E-08
  8516.000   2.066E-08
  8518.000   2.051E-08
  8520.000   2.037E-08
  8522.000   2.024E-08
  8524.000   2.013E-08
  8526.000   2.004E-08
  8528.000   1.996E-08
  8530.000   1.991E-08
  8532.000   1.988E-08
  8534.000   1.987E-08
  8536.000   1.989E-08
  8538.000   1.991E-08
  8540.000   1.995E-08
  8542.000   1.998E-08
  8544.000   2.003E-08
  8546.000   2.008E-08
  8548.000   2.016E-08
  8550.000   2.027E-08
  8552.000   2.041E-08
  8554.000   2.056E-08
  8556.000   2.075E-08
  8558.000   2.096E-08
  8560.000   2.120E-08
  8562.000   2.145E-08
  8564.000   2.172E-08
  8566.000   2.202E-08
  8568.000   2.236E-08
  8570.000   2.277E-08
  8572.000   2.323E-08
  8574.000   2.374E-08
  8576.000   2.430E-08
  8578.000   2.491E-08
  8580.000   2.558E-08
  8582.000   2.628E-08
  8584.000   2.703E-08
  8586.000   2.784E-08
  8588.000   2.870E-08
  8590.000   2.965E-08
  8592.000   3.065E-08
  8594.000   3.171E-08
  8596.000   3.285E-08
  8598.000   3.407E-08
  8600.000   3.540E-08
  8602.000   3.683E-08
  8604.000   3.835E-08
  8606.000   3.997E-08
  8608.000   4.170E-08
  8610.000   4.354E-08
  8612.000   4.547E-08
  8614.000   4.747E-08
  8616.000   4.961E-08
  8618.000   5.192E-08
  8620.000   5.446E-08
  8622.000   5.723E-08
  8624.000   6.018E-08
  8626.000   6.333E-08
  8628.000   6.670E-08
  8630.000   7.027E-08
  8632.000   7.405E-08
  8634.000   7.801E-08
  8636.000   8.219E-08
  8638.000   8.664E-08
  8640.000   9.138E-08
  8642.000   9.646E-08
  8644.000   1.019E-07
  8646.000   1.075E-07
  8648.000   1.133E-07
  8650.000   1.193E-07
  8652.000   1.253E-07
  8654.000   1.315E-07
  8656.000   1.378E-07
  8658.000   1.444E-07
  8660.000   1.512E-07
  8662.000   1.583E-07
  8664.000   1.657E-07
  8666.000   1.733E-07
  8668.000   1.812E-07
  8670.000   1.893E-07
  8672.000   1.976E-07
  8674.000   2.062E-07
  8676.000   2.151E-07
  8678.000   2.241E-07
  8680.000   2.333E-07
  8682.000   2.428E-07
  8684.000   2.524E-07
  8686.000   2.623E-07
  8688.000   2.721E-07
  8690.000   2.819E-07
  8692.000   2.918E-07
  8694.000   3.018E-07
  8696.000   3.117E-07
  8698.000   3.214E-07
  8700.000   3.305E-07
  8702.000   3.391E-07
  8704.000   3.472E-07
  8706.000   3.551E-07
  8708.000   3.626E-07
  8710.000   3.700E-07
  8712.000   3.772E-07
  8714.000   3.844E-07
  8716.000   3.912E-07
  8718.000   3.976E-07
  8720.000   4.033E-07
  8722.000   4.082E-07
  8724.000   4.125E-07
  8726.000   4.163E-07
  8728.000   4.199E-07
  8730.000   4.236E-07
  8732.000   4.275E-07
  8734.000   4.315E-07
  8736.000   4.352E-07
  8738.000   4.385E-07
  8740.000   4.409E-07
  8742.000   4.423E-07
  8744.000   4.429E-07
  8746.000   4.430E-07
  8748.000   4.430E-07
  8750.000   4.432E-07
  8752.000   4.436E-07
  8754.000   4.440E-07
  8756.000   4.444E-07
  8758.000   4.449E-07
  8760.000   4.457E-07
  8762.000   4.466E-07
  8764.000   4.474E-07
  8766.000   4.485E-07
  8768.000   4.503E-07
  8770.000   4.531E-07
  8772.000   4.573E-07
  8774.000   4.624E-07
  8776.000   4.682E-07
  8778.000   4.745E-07
  8780.000   4.810E-07
  8782.000   4.879E-07
  8784.000   4.956E-07
  8786.000   5.034E-07
  8788.000   5.109E-07
  8790.000   5.175E-07
  8792.000   5.231E-07
  8794.000   5.280E-07
  8796.000   5.324E-07
  8798.000   5.367E-07
  8800.000   5.411E-07
  8802.000   5.456E-07
  8804.000   5.498E-07
  8806.000   5.541E-07
  8808.000   5.584E-07
  8810.000   5.631E-07
  8812.000   5.681E-07
  8814.000   5.734E-07
  8816.000   5.788E-07
  8818.000   5.843E-07
  8820.000   5.896E-07
  8822.000   5.949E-07
  8824.000   6.003E-07
  8826.000   6.056E-07
  8828.000   6.107E-07
  8830.000   6.154E-07
  8832.000   6.198E-07
  8834.000   6.239E-07
  8836.000   6.278E-07
  8838.000   6.312E-07
  8840.000   6.342E-07
  8842.000   6.364E-07
  8844.000   6.379E-07
  8846.000   6.391E-07
  8848.000   6.406E-07
  8850.000   6.428E-07
  8852.000   6.460E-07
  8854.000   6.500E-07
  8856.000   6.542E-07
  8858.000   6.581E-07
  8860.000   6.613E-07
  8862.000   6.639E-07
  8864.000   6.661E-07
  8866.000   6.679E-07
  8868.000   6.691E-07
  8870.000   6.695E-07
  8872.000   6.692E-07
  8874.000   6.684E-07
  8876.000   6.669E-07
  8878.000   6.645E-07
  8880.000   6.611E-07
  8882.000   6.567E-07
  8884.000   6.513E-07
  8886.000   6.450E-07
  8888.000   6.379E-07
  8890.000   6.298E-07
  8892.000   6.206E-07
  8894.000   6.103E-07
  8896.000   5.992E-07
  8898.000   5.875E-07
  8900.000   5.754E-07
  8902.000   5.629E-07
  8904.000   5.499E-07
  8906.000   5.364E-07
  8908.000   5.223E-07
  8910.000   5.076E-07
  8912.000   4.921E-07
  8914.000   4.756E-07
  8916.000   4.588E-07
  8918.000   4.420E-07
  8920.000   4.258E-07
  8922.000   4.101E-07
  8924.000   3.946E-07
  8926.000   3.794E-07
  8928.000   3.642E-07
  8930.000   3.490E-07
  8932.000   3.337E-07
  8934.000   3.183E-07
  8936.000   3.030E-07
  8938.000   2.881E-07
  8940.000   2.738E-07
  8942.000   2.601E-07
  8944.000   2.469E-07
  8946.000   2.342E-07
  8948.000   2.220E-07
  8950.000   2.105E-07
  8952.000   1.997E-07
  8954.000   1.895E-07
  8956.000   1.799E-07
  8958.000   1.708E-07
  8960.000   1.621E-07
  8962.000   1.538E-07
  8964.000   1.459E-07
  8966.000   1.385E-07
  8968.000   1.315E-07
  8970.000   1.250E-07
  8972.000   1.189E-07
  8974.000   1.133E-07
  8976.000   1.082E-07
  8978.000   1.033E-07
  8980.000   9.854E-08
  8982.000   9.394E-08
  8984.000   8.956E-08
  8986.000   8.541E-08
  8988.000   8.151E-08
  8990.000   7.786E-08
  8992.000   7.448E-08
  8994.000   7.137E-08
  8996.000   6.850E-08
  8998.000   6.583E-08
  9000.000   6.334E-08
  9002.000   6.106E-08
  9004.000   5.901E-08
  9006.000   5.714E-08
  9008.000   5.540E-08
  9010.000   5.373E-08
  9012.000   5.215E-08
  9014.000   5.069E-08
  9016.000   4.934E-08
  9018.000   4.807E-08
  9020.000   4.688E-08
  9022.000   4.577E-08
  9024.000   4.477E-08
  9026.000   4.384E-08
  9028.000   4.295E-08
  9030.000   4.209E-08
  9032.000   4.125E-08
  9034.000   4.046E-08
  9036.000   3.971E-08
  9038.000   3.898E-08
  9040.000   3.828E-08
  9042.000   3.762E-08
  9044.000   3.699E-08
  9046.000   3.638E-08
  9048.000   3.579E-08
  9050.000   3.520E-08
  9052.000   3.461E-08
  9054.000   3.403E-08
  9056.000   3.346E-08
  9058.000   3.291E-08
  9060.000   3.237E-08
  9062.000   3.185E-08
  9064.000   3.135E-08
  9066.000   3.086E-08
  9068.000   3.038E-08
  9070.000   2.990E-08
  9072.000   2.941E-08
  9074.000   2.892E-08
  9076.000   2.844E-08
  9078.000   2.796E-08
  9080.000   2.749E-08
  9082.000   2.702E-08
  9084.000   2.655E-08
  9086.000   2.609E-08
  9088.000   2.564E-08
  9090.000   2.519E-08
  9092.000   2.477E-08
  9094.000   2.435E-08
  9096.000   2.395E-08
  9098.000   2.355E-08
  9100.000   2.315E-08
  9102.000   2.311E-08
  9104.000   2.274E-08
  9106.000   2.238E-08
  9108.000   2.202E-08
  9110.000   2.168E-08
  9112.000   2.134E-08
  9114.000   2.100E-08
  9116.000   2.068E-08
  9118.000   2.036E-08
  9120.000   2.006E-08
  9122.000   1.976E-08
  9124.000   1.948E-08
  9126.000   1.921E-08
  9128.000   1.895E-08
  9130.000   1.869E-08
  9132.000   1.845E-08
  9134.000   1.821E-08
  9136.000   1.797E-08
  9138.000   1.775E-08
  9140.000   1.753E-08
  9142.000   1.733E-08
  9144.000   1.713E-08
  9146.000   1.694E-08
  9148.000   1.675E-08
  9150.000   1.657E-08
  9152.000   1.639E-08
  9154.000   1.622E-08
  9156.000   1.605E-08
  9158.000   1.588E-08
  9160.000   1.571E-08
  9162.000   1.554E-08
  9164.000   1.537E-08
  9166.000   1.521E-08
  9168.000   1.505E-08
  9170.000   1.490E-08
  9172.000   1.476E-08
  9174.000   1.463E-08
  9176.000   1.450E-08
  9178.000   1.438E-08
  9180.000   1.426E-08
  9182.000   1.413E-08
  9184.000   1.400E-08
  9186.000   1.387E-08
  9188.000   1.374E-08
  9190.000   1.363E-08
  9192.000   1.352E-08
  9194.000   1.342E-08
  9196.000   1.333E-08
  9198.000   1.324E-08
  9200.000   1.316E-08
  9202.000   1.308E-08
  9204.000   1.300E-08
  9206.000   1.293E-08
  9208.000   1.287E-08
  9210.000   1.281E-08
  9212.000   1.275E-08
  9214.000   1.270E-08
  9216.000   1.266E-08
  9218.000   1.262E-08
  9220.000   1.258E-08
  9222.000   1.256E-08
  9224.000   1.254E-08
  9226.000   1.253E-08
  9228.000   1.252E-08
  9230.000   1.251E-08
  9232.000   1.249E-08
  9234.000   1.248E-08
  9236.000   1.247E-08
  9238.000   1.247E-08
  9240.000   1.248E-08
  9242.000   1.249E-08
  9244.000   1.252E-08
  9246.000   1.256E-08
  9248.000   1.261E-08
  9250.000   1.266E-08
  9252.000   1.272E-08
  9254.000   1.278E-08
  9256.000   1.285E-08
  9258.000   1.293E-08
  9260.000   1.302E-08
  9262.000   1.312E-08
  9264.000   1.323E-08
  9266.000   1.335E-08
  9268.000   1.347E-08
  9270.000   1.361E-08
  9272.000   1.376E-08
  9274.000   1.392E-08
  9276.000   1.409E-08
  9278.000   1.427E-08
  9280.000   1.446E-08
  9282.000   1.467E-08
  9284.000   1.488E-08
  9286.000   1.512E-08
  9288.000   1.536E-08
  9290.000   1.563E-08
  9292.000   1.591E-08
  9294.000   1.620E-08
  9296.000   1.652E-08
  9298.000   1.685E-08
  9300.000   1.721E-08
  9302.000   1.758E-08
  9304.000   1.797E-08
  9306.000   1.838E-08
  9308.000   1.881E-08
  9310.000   1.927E-08
  9312.000   1.975E-08
  9314.000   2.026E-08
  9316.000   2.079E-08
  9318.000   2.135E-08
  9320.000   2.193E-08
  9322.000   2.255E-08
  9324.000   2.319E-08
  9326.000   2.386E-08
  9328.000   2.456E-08
  9330.000   2.529E-08
  9332.000   2.604E-08
  9334.000   2.682E-08
  9336.000   2.762E-08
  9338.000   2.845E-08
  9340.000   2.931E-08
  9342.000   3.018E-08
  9344.000   3.108E-08
  9346.000   3.198E-08
  9348.000   3.290E-08
  9350.000   3.383E-08
  9352.000   3.476E-08
  9354.000   3.569E-08
  9356.000   3.660E-08
  9358.000   3.751E-08
  9360.000   3.839E-08
  9362.000   3.925E-08
  9364.000   4.007E-08
  9366.000   4.085E-08
  9368.000   4.159E-08
  9370.000   4.228E-08
  9372.000   4.291E-08
  9374.000   4.348E-08
  9376.000   4.381E-08
  9378.000   4.388E-08
  9380.000   4.388E-08
  9382.000   4.382E-08
  9384.000   4.370E-08
  9386.000   4.353E-08
  9388.000   4.331E-08
  9390.000   4.304E-08
  9392.000   4.274E-08
  9394.000   4.240E-08
  9396.000   4.204E-08
  9398.000   4.167E-08
  9400.000   4.128E-08
  9402.000   4.088E-08
  9404.000   4.048E-08
  9406.000   4.008E-08
  9408.000   3.970E-08
  9410.000   3.932E-08
  9412.000   3.895E-08
  9414.000   3.860E-08
  9416.000   3.826E-08
  9418.000   3.794E-08
  9420.000   3.762E-08
  9422.000   3.732E-08
  9424.000   3.703E-08
  9426.000   3.674E-08
  9428.000   3.645E-08
  9430.000   3.615E-08
  9432.000   3.585E-08
  9434.000   3.553E-08
  9436.000   3.519E-08
  9438.000   3.483E-08
  9440.000   3.439E-08
  9442.000   3.385E-08
  9444.000   3.328E-08
  9446.000   3.270E-08
  9448.000   3.209E-08
  9450.000   3.146E-08
  9452.000   3.082E-08
  9454.000   3.016E-08
  9456.000   2.950E-08
  9458.000   2.884E-08
  9460.000   2.818E-08
  9462.000   2.753E-08
  9464.000   2.688E-08
  9466.000   2.624E-08
  9468.000   2.562E-08
  9470.000   2.501E-08
  9472.000   2.442E-08
  9474.000   2.385E-08
  9476.000   2.330E-08
  9478.000   2.276E-08
  9480.000   2.225E-08
  9482.000   2.176E-08
  9484.000   2.128E-08
  9486.000   2.083E-08
  9488.000   2.039E-08
  9490.000   1.998E-08
  9492.000   1.958E-08
  9494.000   1.920E-08
  9496.000   1.884E-08
  9498.000   1.849E-08
  9500.000   1.816E-08
  9502.000   1.784E-08
  9504.000   1.754E-08
  9506.000   1.725E-08
  9508.000   1.697E-08
  9510.000   1.670E-08
  9512.000   1.645E-08
  9514.000   1.621E-08
  9516.000   1.598E-08
  9518.000   1.575E-08
  9520.000   1.554E-08
  9522.000   1.534E-08
  9524.000   1.514E-08
  9526.000   1.496E-08
  9528.000   1.478E-08
  9530.000   1.460E-08
  9532.000   1.444E-08
  9534.000   1.428E-08
  9536.000   1.413E-08
  9538.000   1.398E-08
  9540.000   1.384E-08
  9542.000   1.370E-08
  9544.000   1.357E-08
  9546.000   1.345E-08
  9548.000   1.333E-08
  9550.000   1.321E-08
  9552.000   1.310E-08
  9554.000   1.299E-08
  9556.000   1.289E-08
  9558.000   1.279E-08
  9560.000   1.269E-08
  9562.000   1.260E-08
  9564.000   1.251E-08
  9566.000   1.243E-08
  9568.000   1.234E-08
  9570.000   1.226E-08
  9572.000   1.218E-08
  9574.000   1.211E-08
  9576.000   1.204E-08
  9578.000   1.197E-08
  9580.000   1.190E-08
  9582.000   1.183E-08
  9584.000   1.177E-08
  9586.000   1.171E-08
  9588.000   1.165E-08
  9590.000   1.159E-08
  9592.000   1.154E-08
  9594.000   1.148E-08
  9596.000   1.143E-08
  9598.000   1.138E-08
  9600.000   1.133E-08
  9602.000   1.128E-08
  9604.000   1.124E-08
  9606.000   1.119E-08
  9608.000   1.115E-08
  9610.000   1.111E-08
  9612.000   1.107E-08
  9614.000   1.103E-08
  9616.000   1.099E-08
  9618.000   1.096E-08
  9620.000   1.092E-08
  9622.000   1.089E-08
  9624.000   1.085E-08
  9626.000   1.082E-08
  9628.000   1.079E-08
  9630.000   1.076E-08
  9632.000   1.073E-08
  9634.000   1.070E-08
  9636.000   1.067E-08
  9638.000   1.065E-08
  9640.000   1.062E-08
  9642.000   1.059E-08
  9644.000   1.057E-08
  9646.000   1.055E-08
  9648.000   1.052E-08
  9650.000   1.050E-08
  9652.000   1.048E-08
  9654.000   1.046E-08
  9656.000   1.044E-08
  9658.000   1.042E-08
  9660.000   1.040E-08
  9662.000   1.039E-08
  9664.000   1.037E-08
  9666.000   1.035E-08
  9668.000   1.034E-08
  9670.000   1.032E-08
  9672.000   1.031E-08
  9674.000   1.030E-08
  9676.000   1.028E-08
  9678.000   1.027E-08
  9680.000   1.026E-08
  9682.000   1.025E-08
  9684.000   1.024E-08
  9686.000   1.023E-08
  9688.000   1.022E-08
  9690.000   1.021E-08
  9692.000   1.020E-08
  9694.000   1.020E-08
  9696.000   1.019E-08
  9698.000   1.018E-08
  9700.000   1.018E-08
  9702.000   1.017E-08
  9704.000   1.017E-08
  9706.000   1.017E-08
  9708.000   1.016E-08
  9710.000   1.016E-08
  9712.000   1.016E-08
  9714.000   1.016E-08
  9716.000   1.016E-08
  9718.000   1.015E-08
  9720.000   1.015E-08
  9722.000   1.015E-08
  9724.000   1.015E-08
  9726.000   1.016E-08
  9728.000   1.016E-08
  9730.000   1.016E-08
  9732.000   1.016E-08
  9734.000   1.016E-08
  9736.000   1.017E-08
  9738.000   1.017E-08
  9740.000   1.018E-08
  9742.000   1.018E-08
  9744.000   1.018E-08
  9746.000   1.019E-08
  9748.000   1.019E-08
  9750.000   1.019E-08
  9752.000   1.019E-08
  9754.000   1.020E-08
  9756.000   1.020E-08
  9758.000   1.020E-08
  9760.000   1.021E-08
  9762.000   1.021E-08
  9764.000   1.021E-08
  9766.000   1.021E-08
  9768.000   1.021E-08
  9770.000   1.022E-08
  9772.000   1.022E-08
  9774.000   1.022E-08
  9776.000   1.022E-08
  9778.000   1.022E-08
  9780.000   1.022E-08
  9782.000   1.022E-08
  9784.000   1.022E-08
  9786.000   1.023E-08
  9788.000   1.023E-08
  9790.000   1.023E-08
  9792.000   1.023E-08
  9794.000   1.023E-08
  9796.000   1.022E-08
  9798.000   1.022E-08
  9800.000   1.022E-08
  9802.000   1.022E-08
  9804.000   1.022E-08
  9806.000   1.022E-08
  9808.000   1.022E-08
  9810.000   1.022E-08
  9812.000   1.022E-08
  9814.000   1.022E-08
  9816.000   1.022E-08
  9818.000   1.022E-08
  9820.000   1.022E-08
  9822.000   1.022E-08
  9824.000   1.022E-08
  9826.000   1.022E-08
  9828.000   1.022E-08
  9830.000   1.023E-08
  9832.000   1.023E-08
  9834.000   1.023E-08
  9836.000   1.023E-08
  9838.000   1.024E-08
  9840.000   1.024E-08
  9842.000   1.024E-08
  9844.000   1.025E-08
  9846.000   1.026E-08
  9848.000   1.026E-08
  9850.000   1.027E-08
  9852.000   1.028E-08
  9854.000   1.029E-08
  9856.000   1.030E-08
  9858.000   1.031E-08
  9860.000   1.032E-08
  9862.000   1.033E-08
  9864.000   1.034E-08
  9866.000   1.035E-08
  9868.000   1.036E-08
  9870.000   1.037E-08
  9872.000   1.039E-08
  9874.000   1.040E-08
  9876.000   1.042E-08
  9878.000   1.043E-08
  9880.000   1.045E-08
  9882.000   1.046E-08
  9884.000   1.047E-08
  9886.000   1.048E-08
  9888.000   1.049E-08
  9890.000   1.050E-08
  9892.000   1.052E-08
  9894.000   1.053E-08
  9896.000   1.054E-08
  9898.000   1.055E-08
  9900.000   1.055E-08
  9902.000   1.056E-08
  9904.000   1.057E-08
  9906.000   1.057E-08
  9908.000   1.058E-08
  9910.000   1.059E-08
  9912.000   1.059E-08
  9914.000   1.059E-08
  9916.000   1.059E-08
  9918.000   1.060E-08
  9920.000   1.060E-08
  9922.000   1.060E-08
  9924.000   1.060E-08
  9926.000   1.060E-08
  9928.000   1.060E-08
  9930.000   1.060E-08
  9932.000   1.059E-08
  9934.000   1.059E-08
  9936.000   1.059E-08
  9938.000   1.058E-08
  9940.000   1.058E-08
  9942.000   1.058E-08
  9944.000   1.058E-08
  9946.000   1.058E-08
  9948.000   1.058E-08
  9950.000   1.058E-08
  9952.000   1.058E-08
  9954.000   1.058E-08
  9956.000   1.058E-08
  9958.000   1.058E-08
  9960.000   1.058E-08
  9962.000   1.058E-08
  9964.000   1.058E-08
  9966.000   1.058E-08
  9968.000   1.058E-08
  9970.000   1.059E-08
  9972.000   1.059E-08
  9974.000   1.059E-08
  9976.000   1.059E-08
  9978.000   1.059E-08
  9980.000   1.060E-08
  9982.000   1.060E-08
  9984.000   1.060E-08
  9986.000   1.060E-08
  9988.000   1.061E-08
  9990.000   1.061E-08
  9992.000   1.061E-08
  9994.000   1.061E-08
  9996.000   1.062E-08
  9998.000   1.062E-08
 10000.000   1.062E-08
